Wavenumber,Transmission
cm^{-1},a.u.
3998.3761,0.9828
3997.4117,0.98341
3996.4473,0.98388
3995.4829,0.98408
3994.5185,0.98401
3993.5541,0.98378
3992.5897,0.98353
3991.6253,0.98331
3990.661,0.98316
3989.6966,0.98305
3988.7322,0.98302
3987.7678,0.98312
3986.8034,0.98335
3985.839,0.98371
3984.8746,0.98418
3983.9102,0.98469
3982.9458,0.98512
3981.9814,0.98541
3981.017,0.98557
3980.0526,0.98567
3979.0882,0.98571
3978.1238,0.98567
3977.1594,0.98558
3976.195,0.98551
3975.2307,0.98553
3974.2663,0.9856
3973.3019,0.98568
3972.3375,0.98582
3971.3731,0.98609
3970.4087,0.98638
3969.4443,0.98644
3968.4799,0.98611
3967.5155,0.98551
3966.5511,0.98482
3965.5867,0.9842
3964.6223,0.98369
3963.6579,0.98329
3962.6935,0.98304
3961.7291,0.98305
3960.7647,0.98328
3959.8004,0.98353
3958.836,0.98368
3957.8716,0.98382
3956.9072,0.9841
3955.9428,0.98459
3954.9784,0.98521
3954.014,0.98585
3953.0496,0.9864
3952.0852,0.98676
3951.1208,0.98673
3950.1564,0.98614
3949.192,0.98512
3948.2276,0.98406
3947.2632,0.98342
3946.2988,0.98338
3945.3345,0.98367
3944.3701,0.98397
3943.4057,0.98408
3942.4413,0.98401
3941.4769,0.98388
3940.5125,0.98381
3939.5481,0.98401
3938.5837,0.98453
3937.6193,0.98521
3936.6549,0.9858
3935.6905,0.98617
3934.7261,0.98627
3933.7617,0.98621
3932.7973,0.98625
3931.8329,0.98644
3930.8685,0.98659
3929.9042,0.98653
3928.9398,0.98629
3927.9754,0.98599
3927.011,0.98576
3926.0466,0.98577
3925.0822,0.98609
3924.1178,0.98666
3923.1534,0.98727
3922.189,0.98769
3921.2246,0.98778
3920.2602,0.98757
3919.2958,0.98717
3918.3314,0.98674
3917.367,0.98655
3916.4026,0.98682
3915.4382,0.98742
3914.4739,0.98796
3913.5095,0.98818
3912.5451,0.98805
3911.5807,0.98762
3910.6163,0.98711
3909.6519,0.98675
3908.6875,0.98669
3907.7231,0.98695
3906.7587,0.98746
3905.7943,0.98808
3904.8299,0.98867
3903.8655,0.98915
3902.9011,0.98948
3901.9367,0.98968
3900.9723,0.98963
3900.0079,0.98933
3899.0436,0.98902
3898.0792,0.989
3897.1148,0.98923
3896.1504,0.98952
3895.186,0.98976
3894.2216,0.98983
3893.2572,0.98961
3892.2928,0.98919
3891.3284,0.9889
3890.364,0.98898
3889.3996,0.98937
3888.4352,0.98986
3887.4708,0.99045
3886.5064,0.99113
3885.542,0.99172
3884.5777,0.99196
3883.6133,0.99163
3882.6489,0.99096
3881.6845,0.9903
3880.7201,0.98987
3879.7557,0.98962
3878.7913,0.98938
3877.8269,0.98911
3876.8625,0.98904
3875.8981,0.9893
3874.9337,0.9898
3873.9693,0.99036
3873.0049,0.99096
3872.0405,0.99155
3871.0761,0.99219
3870.1117,0.99304
3869.1474,0.99401
3868.183,0.99467
3867.2186,0.99466
3866.2542,0.99404
3865.2898,0.99321
3864.3254,0.99247
3863.361,0.99187
3862.3966,0.99137
3861.4322,0.9911
3860.4678,0.99107
3859.5034,0.99122
3858.539,0.99152
3857.5746,0.99194
3856.6102,0.99239
3855.6458,0.99283
3854.6814,0.99351
3853.7171,0.99464
3852.7527,0.99567
3851.7883,0.99592
3850.8239,0.99521
3849.8595,0.99401
3848.8951,0.99286
3847.9307,0.99208
3846.9663,0.9917
3846.0019,0.99158
3845.0375,0.99172
3844.0731,0.9923
3843.1087,0.99336
3842.1443,0.99464
3841.1799,0.99574
3840.2155,0.99636
3839.2511,0.99629
3838.2868,0.99571
3837.3224,0.99518
3836.358,0.99491
3835.3936,0.99471
3834.4292,0.99455
3833.4648,0.9943
3832.5004,0.9937
3831.536,0.99273
3830.5716,0.99183
3829.6072,0.99131
3828.6428,0.9913
3827.6784,0.9917
3826.714,0.99225
3825.7496,0.99269
3824.7852,0.99286
3823.8209,0.99284
3822.8565,0.99295
3821.8921,0.99362
3820.9277,0.99493
3819.9633,0.99636
3818.9989,0.99709
3818.0345,0.99672
3817.0701,0.99553
3816.1057,0.99429
3815.1413,0.99369
3814.1769,0.9939
3813.2125,0.99463
3812.2481,0.99548
3811.2837,0.99604
3810.3193,0.99601
3809.3549,0.99536
3808.3906,0.99438
3807.4262,0.99368
3806.4618,0.99373
3805.4974,0.99454
3804.533,0.99559
3803.5686,0.99636
3802.6042,0.99646
3801.6398,0.99585
3800.6754,0.99511
3799.711,0.99463
3798.7466,0.99442
3797.7822,0.99433
3796.8178,0.99425
3795.8534,0.99399
3794.889,0.99347
3793.9246,0.99284
3792.9603,0.9924
3791.9959,0.99231
3791.0315,0.99249
3790.0671,0.99275
3789.1027,0.99296
3788.1383,0.99312
3787.1739,0.99328
3786.2095,0.9934
3785.2451,0.99339
3784.2807,0.99322
3783.3163,0.99296
3782.3519,0.99281
3781.3875,0.99285
3780.4231,0.99305
3779.4587,0.99335
3778.4943,0.99357
3777.53,0.99342
3776.5656,0.99285
3775.6012,0.9922
3774.6368,0.99194
3773.6724,0.99225
3772.708,0.99293
3771.7436,0.9937
3770.7792,0.99438
3769.8148,0.99495
3768.8504,0.9953
3767.886,0.99524
3766.9216,0.99474
3765.9572,0.99404
3764.9928,0.99346
3764.0284,0.99325
3763.064,0.99356
3762.0997,0.99434
3761.1353,0.99533
3760.1709,0.9961
3759.2065,0.99633
3758.2421,0.99602
3757.2777,0.99562
3756.3133,0.99561
3755.3489,0.99612
3754.3845,0.9968
3753.4201,0.99733
3752.4557,0.99774
3751.4913,0.99826
3750.5269,0.99877
3749.5625,0.99923
3748.5981,0.99978
3747.6338,1
3746.6694,0.99924
3745.705,0.99734
3744.7406,0.99487
3743.7762,0.99274
3742.8118,0.99097
3741.8474,0.98935
3740.883,0.98775
3739.9186,0.98616
3738.9542,0.9845
3737.9898,0.98269
3737.0254,0.98055
3736.061,0.97789
3735.0966,0.97484
3734.1322,0.97182
3733.1678,0.96917
3732.2035,0.96711
3731.2391,0.96584
3730.2747,0.96526
3729.3103,0.96495
3728.3459,0.96467
3727.3815,0.96452
3726.4171,0.96473
3725.4527,0.96538
3724.4883,0.96638
3723.5239,0.9677
3722.5595,0.96945
3721.5951,0.97179
3720.6307,0.97467
3719.6663,0.97792
3718.7019,0.98125
3717.7375,0.98429
3716.7732,0.98664
3715.8088,0.9881
3714.8444,0.98872
3713.88,0.98859
3712.9156,0.98767
3711.9512,0.98591
3710.9868,0.98348
3710.0224,0.98063
3709.058,0.97776
3708.0936,0.97529
3707.1292,0.97346
3706.1648,0.97233
3705.2004,0.97179
3704.236,0.97144
3703.2716,0.97087
3702.3072,0.97008
3701.3429,0.96955
3700.3785,0.96978
3699.4141,0.97073
3698.4497,0.97207
3697.4853,0.97341
3696.5209,0.97446
3695.5565,0.97526
3694.5921,0.97609
3693.6277,0.97718
3692.6633,0.97866
3691.6989,0.98046
3690.7345,0.98226
3689.7701,0.98354
3688.8057,0.98419
3687.8413,0.98466
3686.877,0.98535
3685.9126,0.98604
3684.9482,0.98648
3683.9838,0.98669
3683.0194,0.98694
3682.055,0.98758
3681.0906,0.98874
3680.1262,0.99031
3679.1618,0.99204
3678.1974,0.99375
3677.233,0.99524
3676.2686,0.99641
3675.3042,0.99735
3674.3398,0.99793
3673.3754,0.99768
3672.411,0.99628
3671.4467,0.994
3670.4823,0.99169
3669.5179,0.99026
3668.5535,0.98999
3667.5891,0.99044
3666.6247,0.99088
3665.6603,0.99088
3664.6959,0.99034
3663.7315,0.98952
3662.7671,0.9888
3661.8027,0.98843
3660.8383,0.98838
3659.8739,0.98839
3658.9095,0.98824
3657.9451,0.98781
3656.9807,0.98719
3656.0164,0.98667
3655.052,0.9864
3654.0876,0.98633
3653.1232,0.98632
3652.1588,0.98632
3651.1944,0.9863
3650.23,0.98628
3649.2656,0.98606
3648.3012,0.9854
3647.3368,0.98428
3646.3724,0.98295
3645.408,0.98162
3644.4436,0.98029
3643.4792,0.97883
3642.5148,0.97733
3641.5504,0.97582
3640.5861,0.97416
3639.6217,0.97217
3638.6573,0.96999
3637.6929,0.96789
3636.7285,0.96599
3635.7641,0.96418
3634.7997,0.96225
3633.8353,0.96027
3632.8709,0.95846
3631.9065,0.95684
3630.9421,0.95514
3629.9777,0.95322
3629.0133,0.95131
3628.0489,0.94974
3627.0845,0.94865
3626.1202,0.94781
3625.1558,0.9471
3624.1914,0.94651
3623.227,0.94615
3622.2626,0.94618
3621.2982,0.94674
3620.3338,0.94775
3619.3694,0.94892
3618.405,0.95009
3617.4406,0.95129
3616.4762,0.95248
3615.5118,0.95347
3614.5474,0.95396
3613.583,0.9537
3612.6186,0.95256
3611.6542,0.95056
3610.6899,0.94776
3609.7255,0.94425
3608.7611,0.94034
3607.7967,0.93651
3606.8323,0.93317
3605.8679,0.93054
3604.9035,0.92856
3603.9391,0.92709
3602.9747,0.92593
3602.0103,0.92485
3601.0459,0.92372
3600.0815,0.92255
3599.1171,0.9215
3598.1527,0.92074
3597.1883,0.92033
3596.2239,0.92017
3595.2596,0.92012
3594.2952,0.92
3593.3308,0.91976
3592.3664,0.91954
3591.402,0.91954
3590.4376,0.91982
3589.4732,0.92017
3588.5088,0.92028
3587.5444,0.9199
3586.58,0.91895
3585.6156,0.91769
3584.6512,0.91647
3583.6868,0.91547
3582.7224,0.91457
3581.758,0.91358
3580.7936,0.91247
3579.8293,0.91136
3578.8649,0.91026
3577.9005,0.90915
3576.9361,0.90804
3575.9717,0.90703
3575.0073,0.90623
3574.0429,0.90568
3573.0785,0.90535
3572.1141,0.90503
3571.1497,0.90448
3570.1853,0.9035
3569.2209,0.90211
3568.2565,0.90053
3567.2921,0.89918
3566.3277,0.89829
3565.3634,0.89775
3564.399,0.89722
3563.4346,0.89639
3562.4702,0.89524
3561.5058,0.89394
3560.5414,0.89264
3559.577,0.89137
3558.6126,0.89016
3557.6482,0.88905
3556.6838,0.88814
3555.7194,0.88741
3554.755,0.88673
3553.7906,0.88598
3552.8262,0.88511
3551.8618,0.88407
3550.8974,0.8828
3549.9331,0.88128
3548.9687,0.87959
3548.0043,0.87792
3547.0399,0.87651
3546.0755,0.8755
3545.1111,0.8748
3544.1467,0.87418
3543.1823,0.87347
3542.2179,0.8726
3541.2535,0.87156
3540.2891,0.87041
3539.3247,0.86932
3538.3603,0.86846
3537.3959,0.86781
3536.4315,0.86712
3535.4671,0.86616
3534.5028,0.86489
3533.5384,0.86337
3532.574,0.86177
3531.6096,0.86016
3530.6452,0.85853
3529.6808,0.85697
3528.7164,0.85555
3527.752,0.85429
3526.7876,0.85311
3525.8232,0.85194
3524.8588,0.85075
3523.8944,0.84958
3522.93,0.8485
3521.9656,0.84757
3521.0012,0.84667
3520.0368,0.84558
3519.0725,0.84412
3518.1081,0.84237
3517.1437,0.84066
3516.1793,0.83937
3515.2149,0.83868
3514.2505,0.83839
3513.2861,0.83812
3512.3217,0.8376
3511.3573,0.83672
3510.3929,0.8355
3509.4285,0.83407
3508.4641,0.8326
3507.4997,0.83133
3506.5353,0.83039
3505.5709,0.82978
3504.6065,0.82934
3503.6422,0.82884
3502.6778,0.82812
3501.7134,0.82707
3500.749,0.82572
3499.7846,0.82424
3498.8202,0.82285
3497.8558,0.82167
3496.8914,0.82072
3495.927,0.81995
3494.9626,0.81918
3493.9982,0.81822
3493.0338,0.81698
3492.0694,0.81566
3491.105,0.8145
3490.1406,0.81356
3489.1763,0.81275
3488.2119,0.81187
3487.2475,0.81077
3486.2831,0.80943
3485.3187,0.80795
3484.3543,0.80645
3483.3899,0.80504
3482.4255,0.80375
3481.4611,0.80264
3480.4967,0.80173
3479.5323,0.80096
3478.5679,0.80023
3477.6035,0.79938
3476.6391,0.79829
3475.6747,0.797
3474.7103,0.79578
3473.746,0.79482
3472.7816,0.79403
3471.8172,0.79309
3470.8528,0.79187
3469.8884,0.79062
3468.924,0.78964
3467.9596,0.78901
3466.9952,0.78851
3466.0308,0.78793
3465.0664,0.78723
3464.102,0.78646
3463.1376,0.78565
3462.1732,0.78481
3461.2088,0.78392
3460.2444,0.78297
3459.28,0.78194
3458.3157,0.78082
3457.3513,0.77964
3456.3869,0.77841
3455.4225,0.77718
3454.4581,0.77603
3453.4937,0.77507
3452.5293,0.77432
3451.5649,0.77365
3450.6005,0.77295
3449.6361,0.77213
3448.6717,0.7712
3447.7073,0.77015
3446.7429,0.76896
3445.7785,0.76774
3444.8141,0.76664
3443.8497,0.76573
3442.8854,0.76493
3441.921,0.76417
3440.9566,0.76345
3439.9922,0.76289
3439.0278,0.76251
3438.0634,0.76222
3437.099,0.76183
3436.1346,0.76118
3435.1702,0.76025
3434.2058,0.75915
3433.2414,0.75807
3432.277,0.75709
3431.3126,0.75617
3430.3482,0.75523
3429.3838,0.75415
3428.4195,0.75291
3427.4551,0.75163
3426.4907,0.7505
3425.5263,0.74965
3424.5619,0.74908
3423.5975,0.74876
3422.6331,0.74861
3421.6687,0.74857
3420.7043,0.74852
3419.7399,0.74834
3418.7755,0.74798
3417.8111,0.7474
3416.8467,0.74663
3415.8823,0.74572
3414.9179,0.74474
3413.9535,0.74371
3412.9892,0.74271
3412.0248,0.74184
3411.0604,0.74123
3410.096,0.7409
3409.1316,0.74077
3408.1672,0.74069
3407.2028,0.74049
3406.2384,0.74004
3405.274,0.73928
3404.3096,0.73829
3403.3452,0.73715
3402.3808,0.73588
3401.4164,0.73461
3400.452,0.73357
3399.4876,0.73293
3398.5232,0.73254
3397.5589,0.73209
3396.5945,0.73141
3395.6301,0.7306
3394.6657,0.72977
3393.7013,0.72902
3392.7369,0.72832
3391.7725,0.72756
3390.8081,0.72664
3389.8437,0.72557
3388.8793,0.72454
3387.9149,0.72367
3386.9505,0.723
3385.9861,0.72256
3385.0217,0.72232
3384.0573,0.72214
3383.0929,0.72188
3382.1286,0.7215
3381.1642,0.72101
3380.1998,0.72045
3379.2354,0.71976
3378.271,0.71887
3377.3066,0.71779
3376.3422,0.71655
3375.3778,0.71534
3374.4134,0.71438
3373.449,0.71388
3372.4846,0.7139
3371.5202,0.71426
3370.5558,0.71459
3369.5914,0.71461
3368.627,0.71415
3367.6627,0.71326
3366.6983,0.71211
3365.7339,0.711
3364.7695,0.71017
3363.8051,0.70969
3362.8407,0.70947
3361.8763,0.70928
3360.9119,0.70892
3359.9475,0.70829
3358.9831,0.70739
3358.0187,0.70627
3357.0543,0.70517
3356.0899,0.70442
3355.1255,0.70419
3354.1611,0.7043
3353.1967,0.7044
3352.2324,0.70429
3351.268,0.70399
3350.3036,0.70351
3349.3392,0.70283
3348.3748,0.70199
3347.4104,0.70116
3346.446,0.70054
3345.4816,0.70022
3344.5172,0.70012
3343.5528,0.70006
3342.5884,0.69979
3341.624,0.69923
3340.6596,0.6984
3339.6952,0.69745
3338.7308,0.69652
3337.7664,0.69571
3336.8021,0.69504
3335.8377,0.69446
3334.8733,0.69394
3333.9089,0.69352
3332.9445,0.69323
3331.9801,0.69301
3331.0157,0.69273
3330.0513,0.69227
3329.0869,0.69157
3328.1225,0.69068
3327.1581,0.68969
3326.1937,0.68873
3325.2293,0.68801
3324.2649,0.68755
3323.3005,0.68723
3322.3361,0.68685
3321.3718,0.68635
3320.4074,0.68586
3319.443,0.68557
3318.4786,0.68548
3317.5142,0.68535
3316.5498,0.68494
3315.5854,0.68427
3314.621,0.68349
3313.6566,0.68267
3312.6922,0.68187
3311.7278,0.68113
3310.7634,0.68053
3309.799,0.67999
3308.8346,0.67942
3307.8702,0.67873
3306.9059,0.67791
3305.9415,0.677
3304.9771,0.67612
3304.0127,0.67531
3303.0483,0.67444
3302.0839,0.67339
3301.1195,0.67222
3300.1551,0.67105
3299.1907,0.66996
3298.2263,0.66891
3297.2619,0.66785
3296.2975,0.6668
3295.3331,0.66583
3294.3687,0.66507
3293.4043,0.66449
3292.4399,0.66394
3291.4756,0.66324
3290.5112,0.66236
3289.5468,0.6614
3288.5824,0.66039
3287.618,0.65924
3286.6536,0.65795
3285.6892,0.65668
3284.7248,0.65559
3283.7604,0.6547
3282.796,0.65393
3281.8316,0.65328
3280.8672,0.65273
3279.9028,0.65221
3278.9384,0.65168
3277.974,0.65112
3277.0096,0.65051
3276.0453,0.64982
3275.0809,0.6491
3274.1165,0.64844
3273.1521,0.64787
3272.1877,0.64727
3271.2233,0.64644
3270.2589,0.64533
3269.2945,0.64414
3268.3301,0.64308
3267.3657,0.64222
3266.4013,0.64154
3265.4369,0.64094
3264.4725,0.64043
3263.5081,0.64001
3262.5437,0.63967
3261.5793,0.6394
3260.615,0.63913
3259.6506,0.63883
3258.6862,0.63843
3257.7218,0.63788
3256.7574,0.63716
3255.793,0.63633
3254.8286,0.63545
3253.8642,0.63457
3252.8998,0.63377
3251.9354,0.63315
3250.971,0.63274
3250.0066,0.63246
3249.0422,0.63213
3248.0778,0.63158
3247.1134,0.6309
3246.149,0.63026
3245.1847,0.62982
3244.2203,0.6296
3243.2559,0.62954
3242.2915,0.6295
3241.3271,0.62933
3240.3627,0.62897
3239.3983,0.6285
3238.4339,0.62801
3237.4695,0.62751
3236.5051,0.62692
3235.5407,0.62611
3234.5763,0.62509
3233.6119,0.62403
3232.6475,0.62316
3231.6831,0.62265
3230.7188,0.62252
3229.7544,0.62259
3228.79,0.62268
3227.8256,0.62261
3226.8612,0.6223
3225.8968,0.62171
3224.9324,0.62094
3223.968,0.6202
3223.0036,0.61971
3222.0392,0.61956
3221.0748,0.61967
3220.1104,0.61986
3219.146,0.61996
3218.1816,0.61993
3217.2172,0.61975
3216.2528,0.61944
3215.2885,0.61899
3214.3241,0.61844
3213.3597,0.61787
3212.3953,0.61744
3211.4309,0.61725
3210.4665,0.61727
3209.5021,0.61735
3208.5377,0.61726
3207.5733,0.61687
3206.6089,0.61612
3205.6445,0.6152
3204.6801,0.6144
3203.7157,0.61402
3202.7513,0.61396
3201.7869,0.61393
3200.8225,0.61375
3199.8582,0.61349
3198.8938,0.61333
3197.9294,0.61332
3196.965,0.6134
3196.0006,0.61344
3195.0362,0.61331
3194.0718,0.613
3193.1074,0.61257
3192.143,0.61211
3191.1786,0.6116
3190.2142,0.61105
3189.2498,0.61048
3188.2854,0.60999
3187.321,0.60973
3186.3566,0.6098
3185.3922,0.61022
3184.4279,0.61092
3183.4635,0.61171
3182.4991,0.61231
3181.5347,0.61249
3180.5703,0.61227
3179.6059,0.61192
3178.6415,0.61168
3177.6771,0.61152
3176.7127,0.61123
3175.7483,0.61074
3174.7839,0.61028
3173.8195,0.61017
3172.8551,0.61056
3171.8907,0.61129
3170.9263,0.61209
3169.962,0.6127
3168.9976,0.61301
3168.0332,0.61297
3167.0688,0.61265
3166.1044,0.61226
3165.14,0.61194
3164.1756,0.61179
3163.2112,0.61183
3162.2468,0.61206
3161.2824,0.61249
3160.318,0.61307
3159.3536,0.61376
3158.3892,0.61442
3157.4248,0.615
3156.4604,0.61546
3155.496,0.6158
3154.5317,0.61599
3153.5673,0.61593
3152.6029,0.61564
3151.6385,0.61525
3150.6741,0.61492
3149.7097,0.6148
3148.7453,0.61501
3147.7809,0.61553
3146.8165,0.61616
3145.8521,0.61665
3144.8877,0.61687
3143.9233,0.61687
3142.9589,0.61674
3141.9945,0.6166
3141.0301,0.61658
3140.0657,0.61677
3139.1014,0.61713
3138.137,0.61749
3137.1726,0.6177
3136.2082,0.6178
3135.2438,0.61782
3134.2794,0.61776
3133.315,0.61761
3132.3506,0.61751
3131.3862,0.6176
3130.4218,0.61795
3129.4574,0.61861
3128.493,0.61948
3127.5286,0.62035
3126.5642,0.62095
3125.5998,0.62108
3124.6354,0.62089
3123.6711,0.62064
3122.7067,0.62059
3121.7423,0.62077
3120.7779,0.62102
3119.8135,0.62119
3118.8491,0.62117
3117.8847,0.62088
3116.9203,0.62029
3115.9559,0.61955
3114.9915,0.61888
3114.0271,0.61846
3113.0627,0.61837
3112.0983,0.61867
3111.1339,0.61929
3110.1695,0.61997
3109.2051,0.62043
3108.2408,0.62057
3107.2764,0.62046
3106.312,0.62025
3105.3476,0.62006
3104.3832,0.61985
3103.4188,0.61953
3102.4544,0.61906
3101.49,0.61857
3100.5256,0.61814
3099.5612,0.61779
3098.5968,0.61743
3097.6324,0.61706
3096.668,0.61671
3095.7036,0.61645
3094.7392,0.61626
3093.7749,0.61608
3092.8105,0.6159
3091.8461,0.61584
3090.8817,0.6159
3089.9173,0.61602
3088.9529,0.6161
3087.9885,0.61611
3087.0241,0.61602
3086.0597,0.61582
3085.0953,0.61566
3084.1309,0.61566
3083.1665,0.61584
3082.2021,0.61602
3081.2377,0.61605
3080.2733,0.61595
3079.3089,0.61591
3078.3446,0.61605
3077.3802,0.6162
3076.4158,0.61614
3075.4514,0.6158
3074.487,0.61526
3073.5226,0.61468
3072.5582,0.61422
3071.5938,0.61397
3070.6294,0.61391
3069.665,0.61398
3068.7006,0.61408
3067.7362,0.61411
3066.7718,0.61401
3065.8074,0.61376
3064.843,0.61344
3063.8786,0.61315
3062.9143,0.61301
3061.9499,0.6131
3060.9855,0.6134
3060.0211,0.61381
3059.0567,0.61417
3058.0923,0.61437
3057.1279,0.61441
3056.1635,0.61436
3055.1991,0.61428
3054.2347,0.61423
3053.2703,0.61426
3052.3059,0.61436
3051.3415,0.61447
3050.3771,0.61453
3049.4127,0.61446
3048.4484,0.6143
3047.484,0.61421
3046.5196,0.61432
3045.5552,0.6146
3044.5908,0.61492
3043.6264,0.61509
3042.662,0.61502
3041.6976,0.61479
3040.7332,0.61454
3039.7688,0.61443
3038.8044,0.61447
3037.84,0.61458
3036.8756,0.61473
3035.9112,0.61499
3034.9468,0.6155
3033.9824,0.61624
3033.0181,0.61705
3032.0537,0.6177
3031.0893,0.61802
3030.1249,0.61804
3029.1605,0.61791
3028.1961,0.61784
3027.2317,0.61793
3026.2673,0.61813
3025.3029,0.6183
3024.3385,0.61837
3023.3741,0.61832
3022.4097,0.61823
3021.4453,0.61813
3020.4809,0.61802
3019.5165,0.61789
3018.5521,0.61782
3017.5878,0.6179
3016.6234,0.61827
3015.659,0.61899
3014.6946,0.61997
3013.7302,0.62096
3012.7658,0.62166
3011.8014,0.62191
3010.837,0.62182
3009.8726,0.6216
3008.9082,0.62148
3007.9438,0.62161
3006.9794,0.62197
3006.015,0.62235
3005.0506,0.62253
3004.0862,0.62251
3003.1218,0.62251
3002.1575,0.62278
3001.1931,0.62335
3000.2287,0.62398
2999.2643,0.62436
2998.2999,0.62433
2997.3355,0.62419
2996.3711,0.62423
2995.4067,0.62433
2994.4423,0.62424
2993.4779,0.62406
2992.5135,0.62411
2991.5491,0.62425
2990.5847,0.62397
2989.6203,0.62341
2988.6559,0.6232
2987.6915,0.62348
2986.7272,0.6238
2985.7628,0.62388
2984.7984,0.62401
2983.834,0.62453
2982.8696,0.62526
2981.9052,0.62575
2980.9408,0.62589
2979.9764,0.62598
2979.012,0.62619
2978.0476,0.62646
2977.0832,0.62681
2976.1188,0.62726
2975.1544,0.62756
2974.19,0.62747
2973.2256,0.62711
2972.2613,0.62666
2971.2969,0.62628
2970.3325,0.62637
2969.3681,0.62706
2968.4037,0.62781
2967.4393,0.62807
2966.4749,0.62799
2965.5105,0.62787
2964.5461,0.62784
2963.5817,0.62805
2962.6173,0.62855
2961.6529,0.62901
2960.6885,0.62906
2959.7241,0.62883
2958.7597,0.62869
2957.7953,0.62882
2956.831,0.62895
2955.8666,0.62859
2954.9022,0.62761
2953.9378,0.6265
2952.9734,0.62576
2952.009,0.62533
2951.0446,0.62488
2950.0802,0.62431
2949.1158,0.6238
2948.1514,0.62354
2947.187,0.62344
2946.2226,0.62318
2945.2582,0.62267
2944.2938,0.62212
2943.3294,0.62186
2942.365,0.622
2941.4007,0.62229
2940.4363,0.62227
2939.4719,0.62189
2938.5075,0.62173
2937.5431,0.62213
2936.5787,0.62291
2935.6143,0.62357
2934.6499,0.62359
2933.6855,0.62287
2932.7211,0.62188
2931.7567,0.62131
2930.7923,0.62151
2929.8279,0.6223
2928.8635,0.62318
2927.8991,0.62373
2926.9347,0.62375
2925.9704,0.62319
2925.006,0.62246
2924.0416,0.62217
2923.0772,0.62239
2922.1128,0.62263
2921.1484,0.62251
2920.184,0.62219
2919.2196,0.62196
2918.2552,0.62191
2917.2908,0.62201
2916.3264,0.62247
2915.362,0.6233
2914.3976,0.62402
2913.4332,0.62424
2912.4688,0.624
2911.5044,0.6234
2910.5401,0.62241
2909.5757,0.62133
2908.6113,0.62081
2907.6469,0.6212
2906.6825,0.62207
2905.7181,0.62261
2904.7537,0.62244
2903.7893,0.62183
2902.8249,0.62117
2901.8605,0.62067
2900.8961,0.62049
2899.9317,0.62071
2898.9673,0.62102
2898.0029,0.62104
2897.0385,0.62068
2896.0742,0.62
2895.1098,0.61912
2894.1454,0.61818
2893.181,0.61744
2892.2166,0.61717
2891.2522,0.61738
2890.2878,0.61764
2889.3234,0.61764
2888.359,0.61743
2887.3946,0.61706
2886.4302,0.61637
2885.4658,0.61546
2884.5014,0.61474
2883.537,0.61447
2882.5726,0.61453
2881.6082,0.61458
2880.6439,0.61447
2879.6795,0.61431
2878.7151,0.61429
2877.7507,0.61462
2876.7863,0.61523
2875.8219,0.61564
2874.8575,0.61547
2873.8931,0.61502
2872.9287,0.61493
2871.9643,0.61547
2870.9999,0.61622
2870.0355,0.61669
2869.0711,0.61685
2868.1067,0.61681
2867.1423,0.61654
2866.1779,0.61624
2865.2136,0.6165
2864.2492,0.61761
2863.2848,0.61913
2862.3204,0.62019
2861.356,0.62041
2860.3916,0.62021
2859.4272,0.62014
2858.4628,0.62022
2857.4984,0.6202
2856.534,0.62018
2855.5696,0.62061
2854.6052,0.62175
2853.6408,0.62342
2852.6764,0.62506
2851.712,0.626
2850.7476,0.62603
2849.7833,0.62559
2848.8189,0.62536
2847.8545,0.62567
2846.8901,0.62647
2845.9257,0.62727
2844.9613,0.62746
2843.9969,0.627
2843.0325,0.62661
2842.0681,0.62697
2841.1037,0.6279
2840.1393,0.62886
2839.1749,0.62985
2838.2105,0.63113
2837.2461,0.63258
2836.2817,0.63373
2835.3174,0.63426
2834.353,0.63434
2833.3886,0.63439
2832.4242,0.63474
2831.4598,0.63535
2830.4954,0.63585
2829.531,0.63615
2828.5666,0.6364
2827.6022,0.63649
2826.6378,0.63633
2825.6734,0.63633
2824.709,0.63686
2823.7446,0.63768
2822.7802,0.63847
2821.8158,0.63923
2820.8514,0.63994
2819.8871,0.64045
2818.9227,0.64097
2817.9583,0.64175
2816.9939,0.64259
2816.0295,0.64327
2815.0651,0.64385
2814.1007,0.64436
2813.1363,0.64475
2812.1719,0.64505
2811.2075,0.64519
2810.2431,0.64523
2809.2787,0.64556
2808.3143,0.64634
2807.3499,0.64717
2806.3855,0.64782
2805.4211,0.64839
2804.4568,0.64916
2803.4924,0.65026
2802.528,0.65134
2801.5636,0.65169
2800.5992,0.65114
2799.6348,0.65038
2798.6704,0.65031
2797.706,0.65124
2796.7416,0.65257
2795.7772,0.65357
2794.8128,0.65419
2793.8484,0.65497
2792.884,0.65596
2791.9196,0.65674
2790.9552,0.65698
2789.9909,0.65685
2789.0265,0.65671
2788.0621,0.65688
2787.0977,0.65744
2786.1333,0.65811
2785.1689,0.65862
2784.2045,0.65884
2783.2401,0.65889
2782.2757,0.65917
2781.3113,0.65989
2780.3469,0.66085
2779.3825,0.66168
2778.4181,0.66223
2777.4537,0.66268
2776.4893,0.66322
2775.5249,0.66377
2774.5606,0.6642
2773.5962,0.66455
2772.6318,0.66482
2771.6674,0.66493
2770.703,0.66496
2769.7386,0.66516
2768.7742,0.66563
2767.8098,0.66628
2766.8454,0.66696
2765.881,0.66764
2764.9166,0.66825
2763.9522,0.66867
2762.9878,0.66899
2762.0234,0.66946
2761.059,0.67011
2760.0946,0.6707
2759.1303,0.67107
2758.1659,0.67116
2757.2015,0.67094
2756.2371,0.67068
2755.2727,0.67088
2754.3083,0.67161
2753.3439,0.67253
2752.3795,0.67338
2751.4151,0.67419
2750.4507,0.67496
2749.4863,0.67555
2748.5219,0.67582
2747.5575,0.67584
2746.5931,0.67591
2745.6287,0.67625
2744.6643,0.67666
2743.7,0.67693
2742.7356,0.67713
2741.7712,0.67755
2740.8068,0.67823
2739.8424,0.67904
2738.878,0.67976
2737.9136,0.68032
2736.9492,0.68082
2735.9848,0.68138
2735.0204,0.68185
2734.056,0.68203
2733.0916,0.68197
2732.1272,0.68192
2731.1628,0.68204
2730.1984,0.68233
2729.234,0.68271
2728.2697,0.68326
2727.3053,0.68412
2726.3409,0.68518
2725.3765,0.68604
2724.4121,0.68655
2723.4477,0.68685
2722.4833,0.68695
2721.5189,0.68689
2720.5545,0.68698
2719.5901,0.68739
2718.6257,0.68789
2717.6613,0.68827
2716.6969,0.68861
2715.7325,0.68911
2714.7681,0.68976
2713.8038,0.6902
2712.8394,0.69024
2711.875,0.69035
2710.9106,0.69103
2709.9462,0.69205
2708.9818,0.69281
2708.0174,0.69313
2707.053,0.69323
2706.0886,0.69347
2705.1242,0.69403
2704.1598,0.69466
2703.1954,0.69503
2702.231,0.69522
2701.2666,0.69541
2700.3022,0.69557
2699.3378,0.69573
2698.3735,0.69605
2697.4091,0.69659
2696.4447,0.69734
2695.4803,0.69819
2694.5159,0.69897
2693.5515,0.69943
2692.5871,0.69931
2691.6227,0.69871
2690.6583,0.69822
2689.6939,0.69857
2688.7295,0.69991
2687.7651,0.70158
2686.8007,0.70255
2685.8363,0.70243
2684.8719,0.70187
2683.9075,0.70174
2682.9432,0.70225
2681.9788,0.70291
2681.0144,0.70334
2680.05,0.70358
2679.0856,0.70387
2678.1212,0.70448
2677.1568,0.70556
2676.1924,0.70689
2675.228,0.70794
2674.2636,0.70834
2673.2992,0.70821
2672.3348,0.70794
2671.3704,0.70774
2670.406,0.70768
2669.4416,0.70785
2668.4772,0.70839
2667.5129,0.70918
2666.5485,0.70985
2665.5841,0.71013
2664.6197,0.71003
2663.6553,0.70972
2662.6909,0.70938
2661.7265,0.70926
2660.7621,0.70934
2659.7977,0.70924
2658.8333,0.70876
2657.8689,0.70843
2656.9045,0.70885
2655.9401,0.70975
2654.9757,0.71027
2654.0113,0.71008
2653.0469,0.70979
2652.0826,0.7099
2651.1182,0.71034
2650.1538,0.71091
2649.1894,0.7116
2648.225,0.71229
2647.2606,0.71258
2646.2962,0.71228
2645.3318,0.71184
2644.3674,0.71188
2643.403,0.71253
2642.4386,0.71341
2641.4742,0.71414
2640.5098,0.71454
2639.5454,0.7147
2638.581,0.71492
2637.6167,0.71541
2636.6523,0.71614
2635.6879,0.71679
2634.7235,0.71698
2633.7591,0.71695
2632.7947,0.71723
2631.8303,0.7177
2630.8659,0.71795
2629.9015,0.71794
2628.9371,0.71794
2627.9727,0.71824
2627.0083,0.71888
2626.0439,0.71955
2625.0795,0.71999
2624.1151,0.72023
2623.1507,0.7204
2622.1864,0.72053
2621.222,0.72067
2620.2576,0.7208
2619.2932,0.72087
2618.3288,0.72091
2617.3644,0.72088
2616.4,0.72082
2615.4356,0.7211
2614.4712,0.72201
2613.5068,0.72324
2612.5424,0.72413
2611.578,0.72454
2610.6136,0.72476
2609.6492,0.72499
2608.6848,0.72527
2607.7204,0.72543
2606.7561,0.7254
2605.7917,0.72569
2604.8273,0.72672
2603.8629,0.72794
2602.8985,0.72853
2601.9341,0.72838
2600.9697,0.72788
2600.0053,0.72743
2599.0409,0.72737
2598.0765,0.72783
2597.1121,0.72865
2596.1477,0.7296
2595.1833,0.73049
2594.2189,0.73108
2593.2545,0.73112
2592.2901,0.73074
2591.3258,0.73025
2590.3614,0.72986
2589.397,0.72964
2588.4326,0.7297
2587.4682,0.73025
2586.5038,0.73099
2585.5394,0.7312
2584.575,0.73089
2583.6106,0.73055
2582.6462,0.7304
2581.6818,0.73061
2580.7174,0.73148
2579.753,0.73293
2578.7886,0.73418
2577.8242,0.73457
2576.8599,0.73442
2575.8955,0.73431
2574.9311,0.73436
2573.9667,0.73456
2573.0023,0.73491
2572.0379,0.73522
2571.0735,0.73539
2570.1091,0.73566
2569.1447,0.7362
2568.1803,0.7369
2567.2159,0.73759
2566.2515,0.73814
2565.2871,0.73854
2564.3227,0.73882
2563.3583,0.7391
2562.3939,0.73958
2561.4296,0.74029
2560.4652,0.74089
2559.5008,0.74122
2558.5364,0.74141
2557.572,0.7417
2556.6076,0.74197
2555.6432,0.74191
2554.6788,0.74166
2553.7144,0.74172
2552.75,0.74215
2551.7856,0.74237
2550.8212,0.74212
2549.8568,0.74189
2548.8924,0.74211
2547.928,0.74254
2546.9636,0.74275
2545.9993,0.74293
2545.0349,0.74357
2544.0705,0.74461
2543.1061,0.74545
2542.1417,0.74593
2541.1773,0.74637
2540.2129,0.74672
2539.2485,0.74656
2538.2841,0.7458
2537.3197,0.74506
2536.3553,0.74494
2535.3909,0.74537
2534.4265,0.74576
2533.4621,0.74596
2532.4977,0.74644
2531.5334,0.74727
2530.569,0.74789
2529.6046,0.74808
2528.6402,0.74833
2527.6758,0.74891
2526.7114,0.74967
2525.747,0.75024
2524.7826,0.75044
2523.8182,0.75042
2522.8538,0.75032
2521.8894,0.75003
2520.925,0.74959
2519.9606,0.74931
2518.9962,0.74945
2518.0318,0.74996
2517.0674,0.75055
2516.1031,0.75093
2515.1387,0.75104
2514.1743,0.75105
2513.2099,0.75108
2512.2455,0.75131
2511.2811,0.75169
2510.3167,0.75176
2509.3523,0.75117
2508.3879,0.75025
2507.4235,0.74972
2506.4591,0.75027
2505.4947,0.75191
2504.5303,0.75377
2503.5659,0.75489
2502.6015,0.75509
2501.6371,0.75463
2500.6728,0.75391
2499.7084,0.75367
2498.744,0.75445
2497.7796,0.75595
2496.8152,0.75724
2495.8508,0.75738
2494.8864,0.75653
2493.922,0.75607
2492.9576,0.75681
2491.9932,0.75813
2491.0288,0.75883
2490.0644,0.75836
2489.1,0.75738
2488.1356,0.75693
2487.1712,0.75742
2486.2068,0.75838
2485.2425,0.75896
2484.2781,0.75885
2483.3137,0.75856
2482.3493,0.75861
2481.3849,0.7591
2480.4205,0.75989
2479.4561,0.76056
2478.4917,0.76065
2477.5273,0.76024
2476.5629,0.75988
2475.5985,0.75991
2474.6341,0.76011
2473.6697,0.76036
2472.7053,0.76098
2471.7409,0.76187
2470.7765,0.76232
2469.8122,0.76212
2468.8478,0.76173
2467.8834,0.76171
2466.919,0.7622
2465.9546,0.76289
2464.9902,0.76343
2464.0258,0.76391
2463.0614,0.76453
2462.097,0.76528
2461.1326,0.76569
2460.1682,0.76525
2459.2038,0.76407
2458.2394,0.76289
2457.275,0.76238
2456.3106,0.76272
2455.3463,0.76358
2454.3819,0.76434
2453.4175,0.76446
2452.4531,0.76407
2451.4887,0.76375
2450.5243,0.76366
2449.5599,0.76344
2448.5955,0.76321
2447.6311,0.76381
2446.6667,0.76555
2445.7023,0.76765
2444.7379,0.76928
2443.7735,0.77032
2442.8091,0.77079
2441.8447,0.77049
2440.8803,0.7696
2439.916,0.76868
2438.9516,0.768
2437.9872,0.76764
2437.0228,0.768
2436.0584,0.76917
2435.094,0.77046
2434.1296,0.77105
2433.1652,0.77097
2432.2008,0.77102
2431.2364,0.77172
2430.272,0.77285
2429.3076,0.77381
2428.3432,0.77422
2427.3788,0.77418
2426.4144,0.77388
2425.45,0.77332
2424.4857,0.77273
2423.5213,0.77274
2422.5569,0.77355
2421.5925,0.7747
2420.6281,0.7755
2419.6637,0.77571
2418.6993,0.77566
2417.7349,0.7755
2416.7705,0.7752
2415.8061,0.77519
2414.8417,0.7758
2413.8773,0.77667
2412.9129,0.77739
2411.9485,0.77768
2410.9841,0.77747
2410.0197,0.77709
2409.0554,0.77716
2408.091,0.77813
2407.1266,0.7798
2406.1622,0.78134
2405.1978,0.7821
2404.2334,0.78214
2403.269,0.78183
2402.3046,0.78151
2401.3402,0.7815
2400.3758,0.78175
2399.4114,0.78193
2398.447,0.78198
2397.4826,0.78201
2396.5182,0.78221
2395.5538,0.78265
2394.5894,0.78322
2393.6251,0.78375
2392.6607,0.78414
2391.6963,0.7843
2390.7319,0.78422
2389.7675,0.78384
2388.8031,0.78314
2387.8387,0.78213
2386.8743,0.78091
2385.9099,0.77956
2384.9455,0.77817
2383.9811,0.77686
2383.0167,0.77583
2382.0523,0.77536
2381.0879,0.7757
2380.1235,0.77714
2379.1592,0.7798
2378.1948,0.78341
2377.2304,0.78775
2376.266,0.79264
2375.3016,0.79734
2374.3372,0.80067
2373.3728,0.80186
2372.4084,0.80066
2371.444,0.79748
2370.4796,0.79343
2369.5152,0.78944
2368.5508,0.78535
2367.5864,0.78039
2366.622,0.77442
2365.6576,0.76866
2364.6932,0.76415
2363.7289,0.76056
2362.7645,0.75694
2361.8001,0.75295
2360.8357,0.74995
2359.8713,0.7501
2358.9069,0.75399
2357.9425,0.76038
2356.9781,0.76744
2356.0137,0.77342
2355.0493,0.77657
2354.0849,0.77584
2353.1205,0.77174
2352.1561,0.76531
2351.1917,0.75807
2350.2273,0.75276
2349.2629,0.75211
2348.2986,0.75716
2347.3342,0.76541
2346.3698,0.77273
2345.4054,0.77639
2344.441,0.77638
2343.4766,0.77457
2342.5122,0.77302
2341.5478,0.77197
2340.5834,0.77099
2339.619,0.77012
2338.6546,0.76934
2337.6902,0.76916
2336.7258,0.77045
2335.7614,0.77312
2334.797,0.7756
2333.8326,0.77696
2332.8683,0.77745
2331.9039,0.7774
2330.9395,0.77695
2329.9751,0.77641
2329.0107,0.77631
2328.0463,0.77576
2327.0819,0.77367
2326.1175,0.7703
2325.1531,0.76723
2324.1887,0.76555
2323.2243,0.76611
2322.2599,0.7691
2321.2955,0.77452
2320.3311,0.78055
2319.3667,0.78547
2318.4024,0.78824
2317.438,0.78926
2316.4736,0.78888
2315.5092,0.78754
2314.5448,0.78525
2313.5804,0.78237
2312.616,0.77929
2311.6516,0.77676
2310.6872,0.77515
2309.7228,0.77451
2308.7584,0.77487
2307.794,0.77584
2306.8296,0.77736
2305.8652,0.77888
2304.9008,0.78033
2303.9364,0.7814
2302.9721,0.78213
2302.0077,0.78241
2301.0433,0.78233
2300.0789,0.78216
2299.1145,0.78216
2298.1501,0.78255
2297.1857,0.78334
2296.2213,0.78451
2295.2569,0.78559
2294.2925,0.78621
2293.3281,0.78628
2292.3637,0.78602
2291.3993,0.78579
2290.4349,0.7858
2289.4705,0.78609
2288.5061,0.78639
2287.5418,0.78657
2286.5774,0.78678
2285.613,0.78717
2284.6486,0.78772
2283.6842,0.78826
2282.7198,0.78866
2281.7554,0.78903
2280.791,0.78956
2279.8266,0.79036
2278.8622,0.79128
2277.8978,0.79213
2276.9334,0.79274
2275.969,0.79296
2275.0046,0.79278
2274.0402,0.79254
2273.0759,0.79269
2272.1115,0.79335
2271.1471,0.79421
2270.1827,0.79491
2269.2183,0.79533
2268.2539,0.79565
2267.2895,0.79603
2266.3251,0.79647
2265.3607,0.79681
2264.3963,0.79694
2263.4319,0.79691
2262.4675,0.79698
2261.5031,0.79735
2260.5387,0.798
2259.5743,0.79884
2258.6099,0.79981
2257.6456,0.80083
2256.6812,0.80179
2255.7168,0.80253
2254.7524,0.80283
2253.788,0.8026
2252.8236,0.80195
2251.8592,0.80105
2250.8948,0.80003
2249.9304,0.79911
2248.966,0.79869
2248.0016,0.79899
2247.0372,0.8001
2246.0728,0.80135
2245.1084,0.80181
2244.144,0.8014
2243.1796,0.80106
2242.2153,0.80176
2241.2509,0.80309
2240.2865,0.80386
2239.3221,0.80396
2238.3577,0.80405
2237.3933,0.80425
2236.4289,0.80435
2235.4645,0.80436
2234.5001,0.80442
2233.5357,0.80466
2232.5713,0.80498
2231.6069,0.80497
2230.6425,0.80456
2229.6781,0.80447
2228.7137,0.80487
2227.7493,0.80515
2226.785,0.80537
2225.8206,0.80613
2224.8562,0.80733
2223.8918,0.80837
2222.9274,0.80906
2221.963,0.80934
2220.9986,0.80873
2220.0342,0.80694
2219.0698,0.80489
2218.1054,0.80434
2217.141,0.80603
2216.1766,0.80896
2215.2122,0.81141
2214.2478,0.81212
2213.2834,0.81092
2212.319,0.80894
2211.3547,0.80815
2210.3903,0.80948
2209.4259,0.81188
2208.4615,0.8138
2207.4971,0.81493
2206.5327,0.81546
2205.5683,0.81488
2204.6039,0.81268
2203.6395,0.8099
2202.6751,0.80806
2201.7107,0.80744
2200.7463,0.80754
2199.7819,0.80772
2198.8175,0.80749
2197.8531,0.80709
2196.8888,0.80676
2195.9244,0.80589
2194.96,0.80415
2193.9956,0.80233
2193.0312,0.80187
2192.0668,0.80394
2191.1024,0.80771
2190.138,0.81023
2189.1736,0.80965
2188.2092,0.80713
2187.2448,0.80477
2186.2804,0.8037
2185.316,0.80401
2184.3516,0.80559
2183.3872,0.80828
2182.4228,0.81162
2181.4585,0.81484
2180.4941,0.81637
2179.5297,0.81485
2178.5653,0.81105
2177.6009,0.80763
2176.6365,0.80737
2175.6721,0.81048
2174.7077,0.81461
2173.7433,0.81755
2172.7789,0.8184
2171.8145,0.81704
2170.8501,0.81404
2169.8857,0.81072
2168.9213,0.80834
2167.9569,0.80659
2166.9925,0.80479
2166.0282,0.80358
2165.0638,0.80351
2164.0994,0.80367
2163.135,0.80304
2162.1706,0.80129
2161.2062,0.80007
2160.2418,0.80421
2159.2774,0.81628
2158.313,0.83083
2157.3486,0.83997
2156.3842,0.8418
2155.4198,0.83973
2154.4554,0.83771
2153.491,0.83712
2152.5266,0.83661
2151.5622,0.83494
2150.5979,0.83261
2149.6335,0.8307
2148.6691,0.83003
2147.7047,0.83107
2146.7403,0.83286
2145.7759,0.83309
2144.8115,0.83105
2143.8471,0.82898
2142.8827,0.82915
2141.9183,0.83105
2140.9539,0.83237
2139.9895,0.83196
2139.0251,0.83081
2138.0607,0.83055
2137.0963,0.83187
2136.1319,0.83455
2135.1676,0.83797
2134.2032,0.84147
2133.2388,0.84425
2132.2744,0.84523
2131.31,0.84375
2130.3456,0.84068
2129.3812,0.83795
2128.4168,0.8365
2127.4524,0.83593
2126.488,0.83547
2125.5236,0.83473
2124.5592,0.83411
2123.5948,0.83397
2122.6304,0.83389
2121.666,0.83358
2120.7017,0.83326
2119.7373,0.83305
2118.7729,0.83304
2117.8085,0.83292
2116.8441,0.83167
2115.8797,0.82924
2114.9153,0.82709
2113.9509,0.82614
2112.9865,0.82609
2112.0221,0.82683
2111.0577,0.8283
2110.0933,0.82962
2109.1289,0.82989
2108.1645,0.82926
2107.2001,0.82818
2106.2357,0.82699
2105.2714,0.82615
2104.307,0.82606
2103.3426,0.82677
2102.3782,0.82782
2101.4138,0.82848
2100.4494,0.82849
2099.485,0.82815
2098.5206,0.82778
2097.5562,0.8277
2096.5918,0.82812
2095.6274,0.829
2094.663,0.83011
2093.6986,0.83122
2092.7342,0.83211
2091.7698,0.83262
2090.8054,0.83265
2089.8411,0.83222
2088.8767,0.83155
2087.9123,0.83086
2086.9479,0.83016
2085.9835,0.82942
2085.0191,0.82867
2084.0547,0.82799
2083.0903,0.82738
2082.1259,0.82684
2081.1615,0.82649
2080.1971,0.82646
2079.2327,0.82672
2078.2683,0.82708
2077.3039,0.82748
2076.3395,0.82796
2075.3751,0.82854
2074.4108,0.82917
2073.4464,0.82976
2072.482,0.83026
2071.5176,0.83066
2070.5532,0.83106
2069.5888,0.83146
2068.6244,0.83178
2067.66,0.83206
2066.6956,0.83253
2065.7312,0.83338
2064.7668,0.83449
2063.8024,0.83529
2062.838,0.83515
2061.8736,0.83405
2060.9092,0.83267
2059.9449,0.83175
2058.9805,0.8315
2058.0161,0.83182
2057.0517,0.83256
2056.0873,0.83357
2055.1229,0.83455
2054.1585,0.83493
2053.1941,0.83395
2052.2297,0.83137
2051.2653,0.8282
2050.3009,0.82599
2049.3365,0.82554
2048.3721,0.82657
2047.4077,0.82822
2046.4433,0.82961
2045.4789,0.83021
2044.5146,0.83014
2043.5502,0.82979
2042.5858,0.82944
2041.6214,0.82928
2040.657,0.82962
2039.6926,0.83046
2038.7282,0.83127
2037.7638,0.8315
2036.7994,0.83124
2035.835,0.83115
2034.8706,0.83172
2033.9062,0.83279
2032.9418,0.83396
2031.9774,0.83506
2031.013,0.83612
2030.0486,0.83737
2029.0843,0.83901
2028.1199,0.84117
2027.1555,0.84381
2026.1911,0.84639
2025.2267,0.84768
2024.2623,0.84664
2023.2979,0.84352
2022.3335,0.8396
2021.3691,0.83636
2020.4047,0.83502
2019.4403,0.83626
2018.4759,0.83946
2017.5115,0.84283
2016.5471,0.84488
2015.5827,0.84554
2014.6183,0.84579
2013.654,0.84636
2012.6896,0.84708
2011.7252,0.84765
2010.7608,0.84836
2009.7964,0.84979
2008.832,0.85198
2007.8676,0.85437
2006.9032,0.85622
2005.9388,0.8569
2004.9744,0.85626
2004.01,0.85482
2003.0456,0.8533
2002.0812,0.85204
2001.1168,0.85094
2000.1524,0.84985
1999.1881,0.84867
1998.2237,0.84758
1997.2593,0.84693
1996.2949,0.84695
1995.3305,0.84746
1994.3661,0.84802
1993.4017,0.84831
1992.4373,0.84847
1991.4729,0.84888
1990.5085,0.84955
1989.5441,0.84995
1988.5797,0.84962
1987.6153,0.8487
1986.6509,0.84769
1985.6865,0.84688
1984.7221,0.84608
1983.7578,0.84506
1982.7934,0.84385
1981.829,0.84248
1980.8646,0.84098
1979.9002,0.83986
1978.9358,0.84021
1977.9714,0.84289
1977.007,0.8476
1976.0426,0.85312
1975.0782,0.85826
1974.1138,0.86227
1973.1494,0.86469
1972.185,0.86519
1971.2206,0.86377
1970.2562,0.86107
1969.2918,0.85822
1968.3275,0.85634
1967.3631,0.85596
1966.3987,0.85683
1965.4343,0.85818
1964.4699,0.8593
1963.5055,0.86003
1962.5411,0.86076
1961.5767,0.86202
1960.6123,0.86393
1959.6479,0.86607
1958.6835,0.86786
1957.7191,0.86896
1956.7547,0.86942
1955.7903,0.86944
1954.8259,0.86912
1953.8615,0.86857
1952.8972,0.8681
1951.9328,0.8681
1950.9684,0.86852
1950.004,0.86897
1949.0396,0.86911
1948.0752,0.86908
1947.1108,0.8691
1946.1464,0.86928
1945.182,0.86948
1944.2176,0.86952
1943.2532,0.86933
1942.2888,0.86906
1941.3244,0.86911
1940.36,0.86985
1939.3956,0.87111
1938.4313,0.8724
1937.4669,0.87337
1936.5025,0.87397
1935.5381,0.87436
1934.5737,0.87457
1933.6093,0.87449
1932.6449,0.87404
1931.6805,0.87343
1930.7161,0.87292
1929.7517,0.8726
1928.7873,0.8724
1927.8229,0.87237
1926.8585,0.87259
1925.8941,0.87304
1924.9297,0.87353
1923.9653,0.87387
1923.001,0.87402
1922.0366,0.87407
1921.0722,0.87403
1920.1078,0.87394
1919.1434,0.87398
1918.179,0.87432
1917.2146,0.87482
1916.2502,0.87527
1915.2858,0.87551
1914.3214,0.87561
1913.357,0.8758
1912.3926,0.87617
1911.4282,0.87653
1910.4638,0.87661
1909.4994,0.87644
1908.535,0.87635
1907.5707,0.8766
1906.6063,0.87724
1905.6419,0.87816
1904.6775,0.87908
1903.7131,0.87966
1902.7487,0.87977
1901.7843,0.87959
1900.8199,0.87949
1899.8555,0.87968
1898.8911,0.88018
1897.9267,0.88081
1896.9623,0.8813
1895.9979,0.88146
1895.0335,0.8813
1894.0691,0.88105
1893.1047,0.88101
1892.1404,0.88128
1891.176,0.88165
1890.2116,0.88182
1889.2472,0.8817
1888.2828,0.88148
1887.3184,0.88147
1886.354,0.88173
1885.3896,0.88217
1884.4252,0.88265
1883.4608,0.8831
1882.4964,0.8835
1881.532,0.88378
1880.5676,0.88391
1879.6032,0.88392
1878.6388,0.88379
1877.6744,0.88355
1876.7101,0.88336
1875.7457,0.88341
1874.7813,0.88375
1873.8169,0.8842
1872.8525,0.88453
1871.8881,0.88468
1870.9237,0.88476
1869.9593,0.88491
1868.9949,0.88535
1868.0305,0.88614
1867.0661,0.88704
1866.1017,0.88769
1865.1373,0.88783
1864.1729,0.88741
1863.2085,0.88664
1862.2442,0.88588
1861.2798,0.88548
1860.3154,0.88557
1859.351,0.886
1858.3866,0.88649
1857.4222,0.88682
1856.4578,0.88697
1855.4934,0.88708
1854.529,0.88725
1853.5646,0.88746
1852.6002,0.88756
1851.6358,0.88749
1850.6714,0.88735
1849.707,0.88734
1848.7426,0.88756
1847.7782,0.88793
1846.8139,0.88828
1845.8495,0.88846
1844.8851,0.88844
1843.9207,0.88836
1842.9563,0.88842
1841.9919,0.88869
1841.0275,0.88911
1840.0631,0.88973
1839.0987,0.89049
1838.1343,0.8912
1837.1699,0.8916
1836.2055,0.89167
1835.2411,0.89158
1834.2767,0.89153
1833.3123,0.8917
1832.3479,0.89213
1831.3836,0.89273
1830.4192,0.89325
1829.4548,0.89346
1828.4904,0.89335
1827.526,0.89308
1826.5616,0.89285
1825.5972,0.89271
1824.6328,0.89265
1823.6684,0.89262
1822.704,0.89252
1821.7396,0.89229
1820.7752,0.89203
1819.8108,0.89198
1818.8464,0.89242
1817.882,0.89341
1816.9177,0.89461
1815.9533,0.89552
1814.9889,0.8959
1814.0245,0.89583
1813.0601,0.89556
1812.0957,0.89527
1811.1313,0.89509
1810.1669,0.89498
1809.2025,0.8949
1808.2381,0.89484
1807.2737,0.89482
1806.3093,0.89484
1805.3449,0.89488
1804.3805,0.89487
1803.4161,0.8947
1802.4517,0.8943
1801.4874,0.89392
1800.523,0.89378
1799.5586,0.89386
1798.5942,0.89401
1797.6298,0.89423
1796.6654,0.89467
1795.701,0.89547
1794.7366,0.89652
1793.7722,0.89757
1792.8078,0.89832
1791.8434,0.89856
1790.879,0.89835
1789.9146,0.89789
1788.9502,0.89739
1787.9858,0.89683
1787.0214,0.89618
1786.0571,0.89554
1785.0927,0.89515
1784.1283,0.89517
1783.1639,0.89548
1782.1995,0.8958
1781.2351,0.896
1780.2707,0.89611
1779.3063,0.89624
1778.3419,0.89642
1777.3775,0.89656
1776.4131,0.89667
1775.4487,0.89682
1774.4843,0.89717
1773.5199,0.8977
1772.5555,0.89807
1771.5911,0.89801
1770.6268,0.89757
1769.6624,0.89705
1768.698,0.89663
1767.7336,0.89639
1766.7692,0.89633
1765.8048,0.89641
1764.8404,0.89649
1763.876,0.89646
1762.9116,0.89625
1761.9472,0.89589
1760.9828,0.89546
1760.0184,0.89507
1759.054,0.89482
1758.0896,0.89474
1757.1252,0.89478
1756.1608,0.89483
1755.1965,0.89485
1754.2321,0.8949
1753.2677,0.89495
1752.3033,0.89477
1751.3389,0.89407
1750.3745,0.89289
1749.4101,0.89144
1748.4457,0.88989
1747.4813,0.88823
1746.5169,0.88646
1745.5525,0.88462
1744.5881,0.88272
1743.6237,0.88076
1742.6593,0.8788
1741.6949,0.87685
1740.7306,0.87487
1739.7662,0.87276
1738.8018,0.87069
1737.8374,0.86903
1736.873,0.86787
1735.9086,0.86685
1734.9442,0.86528
1733.9798,0.86292
1733.0154,0.86011
1732.051,0.85751
1731.0866,0.8553
1730.1222,0.85333
1729.1578,0.85147
1728.1934,0.84972
1727.229,0.8481
1726.2646,0.84662
1725.3003,0.84525
1724.3359,0.84395
1723.3715,0.84274
1722.4071,0.84179
1721.4427,0.84135
1720.4783,0.84149
1719.5139,0.84201
1718.5495,0.84243
1717.5851,0.84233
1716.6207,0.84153
1715.6563,0.8402
1714.6919,0.83864
1713.7275,0.83718
1712.7631,0.8361
1711.7987,0.83549
1710.8343,0.83533
1709.87,0.83557
1708.9056,0.83618
1707.9412,0.83704
1706.9768,0.83788
1706.0124,0.83854
1705.048,0.8391
1704.0836,0.83988
1703.1192,0.84113
1702.1548,0.84276
1701.1904,0.84428
1700.226,0.84497
1699.2616,0.84444
1698.2972,0.84306
1697.3328,0.84128
1696.3684,0.83924
1695.404,0.83698
1694.4397,0.83482
1693.4753,0.83301
1692.5109,0.83155
1691.5465,0.83034
1690.5821,0.82922
1689.6177,0.82807
1688.6533,0.82687
1687.6889,0.82566
1686.7245,0.82446
1685.7601,0.82308
1684.7957,0.82113
1683.8313,0.81833
1682.8669,0.81478
1681.9025,0.81086
1680.9381,0.80695
1679.9738,0.80314
1679.0094,0.79951
1678.045,0.7962
1677.0806,0.7931
1676.1162,0.78989
1675.1518,0.78613
1674.1874,0.78193
1673.223,0.77765
1672.2586,0.77357
1671.2942,0.76957
1670.3298,0.76526
1669.3654,0.7604
1668.401,0.75527
1667.4366,0.75048
1666.4722,0.74627
1665.5078,0.74248
1664.5435,0.73879
1663.5791,0.73494
1662.6147,0.7308
1661.6503,0.72644
1660.6859,0.7221
1659.7215,0.71804
1658.7571,0.71448
1657.7927,0.71156
1656.8283,0.70925
1655.8639,0.70734
1654.8995,0.70555
1653.9351,0.70347
1652.9707,0.7006
1652.0063,0.69733
1651.0419,0.69457
1650.0775,0.69255
1649.1132,0.69094
1648.1488,0.68923
1647.1844,0.68698
1646.22,0.68408
1645.2556,0.68087
1644.2912,0.67788
1643.3268,0.6754
1642.3624,0.67348
1641.398,0.6721
1640.4336,0.67128
1639.4692,0.67098
1638.5048,0.67102
1637.5404,0.67105
1636.576,0.6707
1635.6116,0.66973
1634.6472,0.6682
1633.6829,0.6665
1632.7185,0.665
1631.7541,0.66396
1630.7897,0.66347
1629.8253,0.66343
1628.8609,0.66365
1627.8965,0.66398
1626.9321,0.66438
1625.9677,0.66489
1625.0033,0.66544
1624.0389,0.66585
1623.0745,0.6661
1622.1101,0.66643
1621.1457,0.66706
1620.1813,0.66803
1619.2169,0.66921
1618.2526,0.67045
1617.2882,0.67151
1616.3238,0.67216
1615.3594,0.67235
1614.395,0.67229
1613.4306,0.67217
1612.4662,0.67216
1611.5018,0.67236
1610.5374,0.6728
1609.573,0.67346
1608.6086,0.67432
1607.6442,0.67534
1606.6798,0.67637
1605.7154,0.67726
1604.751,0.67787
1603.7867,0.67813
1602.8223,0.67808
1601.8579,0.67784
1600.8935,0.6776
1599.9291,0.67754
1598.9647,0.67776
1598.0003,0.6783
1597.0359,0.67904
1596.0715,0.67979
1595.1071,0.68038
1594.1427,0.68073
1593.1783,0.6809
1592.2139,0.68102
1591.2495,0.68119
1590.2851,0.68143
1589.3207,0.68162
1588.3564,0.68167
1587.392,0.68154
1586.4276,0.6813
1585.4632,0.68111
1584.4988,0.681
1583.5344,0.68092
1582.57,0.68079
1581.6056,0.68062
1580.6412,0.68051
1579.6768,0.68057
1578.7124,0.68071
1577.748,0.68062
1576.7836,0.67989
1575.8192,0.67838
1574.8548,0.67648
1573.8904,0.67472
1572.9261,0.67327
1571.9617,0.67209
1570.9973,0.67103
1570.0329,0.66989
1569.0685,0.66851
1568.1041,0.66708
1567.1397,0.66588
1566.1753,0.66479
1565.2109,0.66363
1564.2465,0.66241
1563.2821,0.66139
1562.3177,0.66081
1561.3533,0.6606
1560.3889,0.66046
1559.4245,0.65998
1558.4602,0.65879
1557.4958,0.65689
1556.5314,0.65466
1555.567,0.65266
1554.6026,0.65102
1553.6382,0.64964
1552.6738,0.64857
1551.7094,0.64781
1550.745,0.64723
1549.7806,0.64666
1548.8162,0.64611
1547.8518,0.6458
1546.8874,0.64594
1545.923,0.64656
1544.9586,0.64747
1543.9942,0.64854
1543.0299,0.64959
1542.0655,0.65023
1541.1011,0.65015
1540.1367,0.64919
1539.1723,0.64764
1538.2079,0.64622
1537.2435,0.6457
1536.2791,0.64611
1535.3147,0.64705
1534.3503,0.64802
1533.3859,0.64873
1532.4215,0.64924
1531.4571,0.6499
1530.4927,0.65091
1529.5283,0.65226
1528.5639,0.6538
1527.5996,0.65549
1526.6352,0.65731
1525.6708,0.65926
1524.7064,0.66146
1523.742,0.66395
1522.7776,0.66662
1521.8132,0.66939
1520.8488,0.6722
1519.8844,0.67508
1518.92,0.67797
1517.9556,0.68089
1516.9912,0.68377
1516.0268,0.68662
1515.0624,0.68958
1514.098,0.69279
1513.1336,0.69634
1512.1693,0.70025
1511.2049,0.70446
1510.2405,0.70889
1509.2761,0.71335
1508.3117,0.71757
1507.3473,0.7212
1506.3829,0.72426
1505.4185,0.72692
1504.4541,0.72946
1503.4897,0.73198
1502.5253,0.73461
1501.5609,0.73748
1500.5965,0.74061
1499.6321,0.74383
1498.6677,0.7468
1497.7033,0.74923
1496.739,0.75105
1495.7746,0.7524
1494.8102,0.75358
1493.8458,0.75488
1492.8814,0.75634
1491.917,0.75784
1490.9526,0.75916
1489.9882,0.76012
1489.0238,0.76062
1488.0594,0.7607
1487.095,0.76035
1486.1306,0.75963
1485.1662,0.75865
1484.2018,0.75751
1483.2374,0.7563
1482.2731,0.7551
1481.3087,0.75398
1480.3443,0.75291
1479.3799,0.75187
1478.4155,0.75076
1477.4511,0.74947
1476.4867,0.74789
1475.5223,0.74599
1474.5579,0.74377
1473.5935,0.74122
1472.6291,0.73823
1471.6647,0.73478
1470.7003,0.73116
1469.7359,0.7277
1468.7715,0.72442
1467.8071,0.72121
1466.8428,0.71803
1465.8784,0.71492
1464.914,0.71188
1463.9496,0.7088
1462.9852,0.70568
1462.0208,0.70259
1461.0564,0.69968
1460.092,0.697
1459.1276,0.69444
1458.1632,0.69158
1457.1988,0.68801
1456.2344,0.68361
1455.27,0.67874
1454.3056,0.67387
1453.3412,0.66932
1452.3768,0.66517
1451.4125,0.66135
1450.4481,0.65779
1449.4837,0.65444
1448.5193,0.65121
1447.5549,0.64798
1446.5905,0.64475
1445.6261,0.64159
1444.6617,0.63858
1443.6973,0.63575
1442.7329,0.63302
1441.7685,0.63035
1440.8041,0.62776
1439.8397,0.62531
1438.8753,0.62301
1437.9109,0.62075
1436.9465,0.61828
1435.9822,0.61559
1435.0178,0.61287
1434.0534,0.61035
1433.089,0.60799
1432.1246,0.6057
1431.1602,0.6034
1430.1958,0.6011
1429.2314,0.59895
1428.267,0.5971
1427.3026,0.59562
1426.3382,0.59449
1425.3738,0.59368
1424.4094,0.5931
1423.445,0.59268
1422.4806,0.59238
1421.5162,0.5921
1420.5519,0.59171
1419.5875,0.59108
1418.6231,0.59012
1417.6587,0.58901
1416.6943,0.58806
1415.7299,0.58757
1414.7655,0.58766
1413.8011,0.58824
1412.8367,0.58916
1411.8723,0.59027
1410.9079,0.59145
1409.9435,0.5927
1408.9791,0.59411
1408.0147,0.59578
1407.0503,0.5978
1406.086,0.60014
1405.1216,0.60274
1404.1572,0.60554
1403.1928,0.60848
1402.2284,0.61148
1401.264,0.6145
1400.2996,0.61755
1399.3352,0.6206
1398.3708,0.62364
1397.4064,0.62674
1396.442,0.62988
1395.4776,0.63277
1394.5132,0.63507
1393.5488,0.63677
1392.5844,0.63815
1391.62,0.63946
1390.6557,0.64079
1389.6913,0.64207
1388.7269,0.64324
1387.7625,0.6442
1386.7981,0.64481
1385.8337,0.64497
1384.8693,0.64471
1383.9049,0.64407
1382.9405,0.64309
1381.9761,0.64182
1381.0117,0.64034
1380.0473,0.63879
1379.0829,0.63744
1378.1185,0.63659
1377.1541,0.63647
1376.1897,0.63714
1375.2254,0.63845
1374.261,0.64021
1373.2966,0.64231
1372.3322,0.64476
1371.3678,0.64763
1370.4034,0.65093
1369.439,0.6546
1368.4746,0.65864
1367.5102,0.66299
1366.5458,0.66761
1365.5814,0.67246
1364.617,0.67741
1363.6526,0.68227
1362.6882,0.68689
1361.7238,0.69123
1360.7595,0.69527
1359.7951,0.699
1358.8307,0.70248
1357.8663,0.70584
1356.9019,0.70922
1355.9375,0.71261
1354.9731,0.71595
1354.0087,0.71914
1353.0443,0.72213
1352.0799,0.7249
1351.1155,0.72749
1350.1511,0.72989
1349.1867,0.73217
1348.2223,0.73434
1347.2579,0.73639
1346.2935,0.73828
1345.3292,0.73997
1344.3648,0.74145
1343.4004,0.74273
1342.436,0.74384
1341.4716,0.7447
1340.5072,0.74525
1339.5428,0.74552
1338.5784,0.74561
1337.614,0.74568
1336.6496,0.74583
1335.6852,0.74606
1334.7208,0.74624
1333.7564,0.74629
1332.792,0.74618
1331.8276,0.74598
1330.8632,0.74565
1329.8989,0.74513
1328.9345,0.74444
1327.9701,0.74369
1327.0057,0.74298
1326.0413,0.74229
1325.0769,0.74157
1324.1125,0.74083
1323.1481,0.7402
1322.1837,0.73979
1321.2193,0.73964
1320.2549,0.73973
1319.2905,0.73999
1318.3261,0.74031
1317.3617,0.74052
1316.3973,0.74055
1315.4329,0.74047
1314.4686,0.74041
1313.5042,0.74048
1312.5398,0.74067
1311.5754,0.74094
1310.611,0.74125
1309.6466,0.74161
1308.6822,0.74205
1307.7178,0.74259
1306.7534,0.74325
1305.789,0.744
1304.8246,0.74486
1303.8602,0.74581
1302.8958,0.74681
1301.9314,0.74779
1300.967,0.74869
1300.0026,0.74955
1299.0383,0.75044
1298.0739,0.75143
1297.1095,0.75245
1296.1451,0.75346
1295.1807,0.75443
1294.2163,0.75537
1293.2519,0.75624
1292.2875,0.75698
1291.3231,0.75759
1290.3587,0.75807
1289.3943,0.7585
1288.4299,0.7589
1287.4655,0.75929
1286.5011,0.75968
1285.5367,0.76007
1284.5724,0.76043
1283.608,0.76073
1282.6436,0.76096
1281.6792,0.76116
1280.7148,0.76138
1279.7504,0.76162
1278.786,0.76185
1277.8216,0.76207
1276.8572,0.76236
1275.8928,0.7627
1274.9284,0.76302
1273.964,0.76319
1272.9996,0.76315
1272.0352,0.76291
1271.0708,0.7625
1270.1064,0.76196
1269.1421,0.76131
1268.1777,0.76063
1267.2133,0.76001
1266.2489,0.75954
1265.2845,0.75921
1264.3201,0.75894
1263.3557,0.75865
1262.3913,0.75833
1261.4269,0.75799
1260.4625,0.75767
1259.4981,0.75736
1258.5337,0.75705
1257.5693,0.75669
1256.6049,0.75629
1255.6405,0.75591
1254.6761,0.75561
1253.7118,0.75541
1252.7474,0.75532
1251.783,0.75535
1250.8186,0.75549
1249.8542,0.75574
1248.8898,0.756
1247.9254,0.75621
1246.961,0.75641
1245.9966,0.75678
1245.0322,0.75741
1244.0678,0.75821
1243.1034,0.75909
1242.139,0.76
1241.1746,0.76093
1240.2102,0.76188
1239.2458,0.76287
1238.2815,0.76392
1237.3171,0.76504
1236.3527,0.76618
1235.3883,0.76732
1234.4239,0.76845
1233.4595,0.76954
1232.4951,0.77062
1231.5307,0.77171
1230.5663,0.7728
1229.6019,0.77389
1228.6375,0.77495
1227.6731,0.77595
1226.7087,0.77686
1225.7443,0.77763
1224.7799,0.77825
1223.8156,0.77874
1222.8512,0.77923
1221.8868,0.77986
1220.9224,0.78073
1219.958,0.78177
1218.9936,0.7828
1218.0292,0.78362
1217.0648,0.78415
1216.1004,0.78444
1215.136,0.78457
1214.1716,0.78461
1213.2072,0.78452
1212.2428,0.78427
1211.2784,0.78387
1210.314,0.78338
1209.3496,0.78287
1208.3853,0.78239
1207.4209,0.78189
1206.4565,0.78128
1205.4921,0.78046
1204.5277,0.77939
1203.5633,0.77811
1202.5989,0.77669
1201.6345,0.77514
1200.6701,0.77349
1199.7057,0.77184
1198.7413,0.7704
1197.7769,0.76925
1196.8125,0.76822
1195.8481,0.76721
1194.8837,0.76626
1193.9193,0.76517
1192.955,0.76356
1191.9906,0.76152
1191.0262,0.75956
1190.0618,0.7579
1189.0974,0.75636
1188.133,0.75446
1187.1686,0.75186
1186.2042,0.74873
1185.2398,0.74559
1184.2754,0.74292
1183.311,0.74067
1182.3466,0.73837
1181.3822,0.73575
1180.4178,0.73295
1179.4534,0.73016
1178.489,0.72715
1177.5247,0.72356
1176.5603,0.71939
1175.5959,0.71501
1174.6315,0.71059
1173.6671,0.70605
1172.7027,0.70149
1171.7383,0.69721
1170.7739,0.69316
1169.8095,0.68895
1168.8451,0.6843
1167.8807,0.67926
1166.9163,0.67409
1165.9519,0.66911
1164.9875,0.66428
1164.0231,0.65915
1163.0587,0.65359
1162.0944,0.64819
1161.13,0.64354
1160.1656,0.63959
1159.2012,0.63595
1158.2368,0.63223
1157.2724,0.62822
1156.308,0.62397
1155.3436,0.6197
1154.3792,0.61568
1153.4148,0.61216
1152.4504,0.60917
1151.486,0.60643
1150.5216,0.60374
1149.5572,0.60141
1148.5928,0.59972
1147.6285,0.59823
1146.6641,0.59629
1145.6997,0.59405
1144.7353,0.5923
1143.7709,0.59129
1142.8065,0.59046
1141.8421,0.58928
1140.8777,0.58773
1139.9133,0.58566
1138.9489,0.5828
1137.9845,0.57942
1137.0201,0.57609
1136.0557,0.5729
1135.0913,0.56949
1134.1269,0.56566
1133.1625,0.56143
1132.1982,0.55695
1131.2338,0.55264
1130.2694,0.54896
1129.305,0.54573
1128.3406,0.54211
1127.3762,0.53771
1126.4118,0.53287
1125.4474,0.52812
1124.483,0.52374
1123.5186,0.51953
1122.5542,0.51502
1121.5898,0.5099
1120.6254,0.50436
1119.661,0.49882
1118.6966,0.49328
1117.7322,0.48754
1116.7679,0.48172
1115.8035,0.4762
1114.8391,0.471
1113.8747,0.46585
1112.9103,0.46057
1111.9459,0.45514
1110.9815,0.4496
1110.0171,0.44406
1109.0527,0.43884
1108.0883,0.434
1107.1239,0.42903
1106.1595,0.42348
1105.1951,0.41752
1104.2307,0.41169
1103.2663,0.40611
1102.302,0.40041
1101.3376,0.39429
1100.3732,0.3879
1099.4088,0.38148
1098.4444,0.37506
1097.48,0.3686
1096.5156,0.36216
1095.5512,0.35574
1094.5868,0.34931
1093.6224,0.34293
1092.658,0.33698
1091.6936,0.33159
1090.7292,0.32632
1089.7648,0.32076
1088.8004,0.31489
1087.836,0.30876
1086.8717,0.30239
1085.9073,0.29581
1084.9429,0.2892
1083.9785,0.2829
1083.0141,0.27725
1082.0497,0.27222
1081.0853,0.26732
1080.1209,0.26221
1079.1565,0.25697
1078.1921,0.2518
1077.2277,0.24676
1076.2633,0.24186
1075.2989,0.23695
1074.3345,0.2319
1073.3701,0.22679
1072.4057,0.22166
1071.4414,0.21638
1070.477,0.21101
1069.5126,0.20585
1068.5482,0.20119
1067.5838,0.19705
1066.6194,0.19306
1065.655,0.18866
1064.6906,0.18376
1063.7262,0.17881
1062.7618,0.17436
1061.7974,0.17056
1060.833,0.16711
1059.8686,0.16383
1058.9042,0.16064
1057.9398,0.15731
1056.9754,0.15381
1056.0111,0.15058
1055.0467,0.14781
1054.0823,0.14509
1053.1179,0.14205
1052.1535,0.13887
1051.1891,0.13581
1050.2247,0.13281
1049.2603,0.12978
1048.2959,0.12666
1047.3315,0.12333
1046.3671,0.1199
1045.4027,0.11658
1044.4383,0.11342
1043.4739,0.1103
1042.5095,0.10706
1041.5451,0.10365
1040.5808,0.10024
1039.6164,0.096939
1038.652,0.093557
1037.6876,0.089889
1036.7232,0.086156
1035.7588,0.082799
1034.7944,0.079788
1033.83,0.076653
1032.8656,0.073193
1031.9012,0.069742
1030.9368,0.06677
1029.9724,0.064466
1029.008,0.062573
1028.0436,0.06063
1027.0792,0.058296
1026.1149,0.055582
1025.1505,0.052828
1024.1861,0.050291
1023.2217,0.047913
1022.2573,0.045758
1021.2929,0.044077
1020.3285,0.04293
1019.3641,0.041926
1018.3997,0.040423
1017.4353,0.038213
1016.4709,0.03579
1015.5065,0.033818
1014.5421,0.032453
1013.5777,0.031301
1012.6133,0.029986
1011.6489,0.028523
1010.6846,0.027099
1009.7202,0.025887
1008.7558,0.024859
1007.7914,0.023658
1006.827,0.022011
1005.8626,0.020103
1004.8982,0.018392
1003.9338,0.017171
1002.9694,0.016345
1002.005,0.015475
1001.0406,0.014175
1000.0762,0.012528
999.11183,0.011015
998.14743,0.009908
997.18304,0.009201
996.21865,0.0088055
995.25425,0.0084643
994.28986,0.0079402
993.32547,0.0071442
992.36107,0.0059972
991.39668,0.004687
990.43229,0.0035548
989.46789,0.0026995
988.5035,0.0021556
987.5391,0.0019727
986.57471,0.001943
985.61032,0.0018095
984.64592,0.0014733
983.68153,0.00092455
982.71714,0.00039553
981.75274,9.8882e-05
980.78835,0
979.82395,9.3938e-05
978.85956,0.00049935
977.89517,0.0010877
976.93078,0.0013151
975.96638,0.00093938
975.00199,0.00057846
974.03759,0.00098882
973.0732,0.0022693
972.10881,0.0040443
971.14441,0.0056561
970.18002,0.0065806
969.21563,0.0070701
968.25123,0.0078414
967.28684,0.0091763
966.32244,0.010719
965.35805,0.012138
964.39366,0.013399
963.42926,0.014476
962.46487,0.015297
961.50048,0.016009
960.53608,0.016899
959.57169,0.017977
958.6073,0.019134
957.6429,0.020617
956.67851,0.022763
955.71411,0.025393
954.74972,0.028013
953.78533,0.030189
952.82093,0.031786
951.85654,0.033185
950.89215,0.034905
949.92775,0.036997
948.96336,0.039172
947.99896,0.041199
947.03457,0.04286
946.07018,0.0442
945.10578,0.045422
944.14139,0.046564
943.177,0.047765
942.2126,0.049476
941.24821,0.051958
940.28382,0.055112
939.31942,0.058469
938.35503,0.061277
937.39063,0.06321
936.42624,0.064708
935.46185,0.066464
934.49745,0.068792
933.53306,0.071521
932.56867,0.074142
931.60427,0.076258
930.63988,0.078092
929.67548,0.080045
928.71109,0.081929
927.7467,0.083471
926.7823,0.084979
925.81791,0.086819
924.85352,0.088949
923.88912,0.091229
922.92473,0.093518
921.96034,0.095461
920.99594,0.096776
920.03155,0.097755
919.06715,0.099139
918.10276,0.10139
917.13837,0.10414
916.17397,0.10658
915.20958,0.10827
914.24519,0.10933
913.28079,0.1101
912.3164,0.11102
911.35201,0.11227
910.38761,0.11361
909.42322,0.11482
908.45883,0.11589
907.49443,0.11665
906.53004,0.11704
905.56564,0.11747
904.60125,0.1184
903.63686,0.11984
902.67246,0.12138
901.70807,0.12245
900.74368,0.12285
899.77928,0.12321
898.81489,0.12421
897.8505,0.12534
896.8861,0.12559
895.92171,0.12475
894.95731,0.12359
893.99292,0.12323
893.02853,0.12431
892.06413,0.12646
891.09974,0.12868
890.13535,0.13035
889.17095,0.13151
888.20656,0.13243
887.24216,0.13343
886.27777,0.13485
885.31338,0.13673
884.34898,0.1388
883.38459,0.14066
882.4202,0.14215
881.4558,0.14345
880.49141,0.14489
879.52702,0.14657
878.56262,0.14844
877.59823,0.15054
876.63383,0.15307
875.66944,0.15616
874.70505,0.15952
873.74065,0.16259
872.77626,0.16507
871.81187,0.16724
870.84747,0.16956
869.88308,0.17216
868.91868,0.1749
867.95429,0.17746
866.9899,0.17988
866.0255,0.18249
865.06111,0.18528
864.09672,0.18795
863.13232,0.19047
862.16793,0.19298
861.20354,0.19536
860.23914,0.19755
859.27475,0.1996
858.31035,0.2014
857.34596,0.20317
856.38157,0.20555
855.41717,0.20876
854.45278,0.21246
853.48839,0.21613
852.52399,0.21938
851.5596,0.22228
850.5952,0.22515
849.63081,0.2277
848.66642,0.22948
847.70202,0.23098
846.73763,0.23305
845.77324,0.23591
844.80884,0.23944
843.84445,0.24339
842.88006,0.24712
841.91566,0.24977
840.95127,0.25135
839.98688,0.25272
839.02248,0.25452
838.05809,0.25654
837.09369,0.2584
836.1293,0.26042
835.16491,0.26302
834.20051,0.2658
833.23612,0.26806
832.27173,0.26976
831.30733,0.27129
830.34294,0.27298
829.37855,0.27492
828.41415,0.27691
827.44976,0.27883
826.48536,0.28108
825.52097,0.28371
824.55658,0.2857
823.59218,0.28623
822.62779,0.28577
821.6634,0.28524
820.699,0.28551
819.73461,0.28731
818.77022,0.29054
817.80582,0.29426
816.84143,0.29737
815.87703,0.29913
814.91264,0.29958
813.94825,0.29991
812.98385,0.30129
812.01946,0.30329
811.05507,0.3046
810.09067,0.30498
809.12628,0.30506
808.16188,0.3053
807.19749,0.30618
806.2331,0.30801
805.2687,0.31038
804.30431,0.31233
803.33992,0.31314
802.37552,0.31314
801.41113,0.31359
800.44673,0.3153
799.48234,0.31755
798.51795,0.31921
797.55355,0.32007
796.58916,0.32058
795.62477,0.32119
794.66037,0.32228
793.69598,0.32401
792.73159,0.32593
791.76719,0.32707
790.8028,0.32675
789.8384,0.32552
788.87401,0.32512
787.90962,0.32652
786.94522,0.32892
785.98083,0.33082
785.01644,0.33127
784.05204,0.3305
783.08765,0.32979
782.12326,0.33006
781.15886,0.33149
780.19447,0.334
779.23008,0.33706
778.26568,0.33936
777.30129,0.34024
776.33689,0.34068
775.3725,0.34194
774.40811,0.34386
773.44371,0.34529
772.47932,0.34577
771.51493,0.34592
770.55053,0.34634
769.58614,0.3469
768.62175,0.34707
767.65735,0.34647
766.69296,0.34559
765.72856,0.34541
764.76417,0.34604
763.79978,0.34708
762.83538,0.3486
761.87099,0.35018
760.9066,0.3505
759.9422,0.34942
758.97781,0.3484
758.01341,0.34863
757.04902,0.35037
756.08463,0.35266
755.12023,0.35387
754.15584,0.35356
753.19145,0.35298
752.22705,0.35337
751.26266,0.35463
750.29827,0.35595
749.33387,0.35664
748.36948,0.35643
747.40508,0.35564
746.44069,0.35502
745.4763,0.35537
744.5119,0.35693
743.54751,0.3586
742.58312,0.35842
741.61872,0.35605
740.65433,0.35343
739.68993,0.35241
738.72554,0.35278
737.76115,0.35337
736.79675,0.35381
735.83236,0.3546
734.86797,0.3563
733.90357,0.35898
732.93918,0.36183
731.97479,0.36313
731.01039,0.36171
730.046,0.35869
729.0816,0.3565
728.11721,0.35627
727.15282,0.35736
726.18842,0.35881
725.22403,0.36003
724.25964,0.36084
723.29524,0.3614
722.33085,0.36192
721.36645,0.36247
720.40206,0.36274
719.43767,0.36252
718.47327,0.36216
717.50888,0.36208
716.54449,0.36232
715.58009,0.36266
714.6157,0.36277
713.65131,0.36235
712.68691,0.36127
711.72252,0.35969
710.75812,0.35812
709.79373,0.35712
708.82934,0.35708
707.86494,0.35792
706.90055,0.35924
705.93616,0.36049
704.97176,0.36128
704.00737,0.36141
703.04298,0.36093
702.07858,0.36007
701.11419,0.35931
700.1498,0.35892
699.1854,0.3589
698.22101,0.35921
697.25661,0.36
696.29222,0.3613
695.32783,0.36295
694.36343,0.36455
693.39904,0.36559
692.43465,0.3657
691.47025,0.36502
690.50586,0.36402
689.54147,0.36319
688.57707,0.36275
687.61268,0.3626
686.64828,0.36249
685.68389,0.36239
684.7195,0.36262
683.7551,0.3635
682.79071,0.36498
681.82632,0.3666
680.86192,0.36793
679.89753,0.36887
678.93313,0.36941
677.96874,0.36941
677.00435,0.36869
676.03995,0.36693
675.07556,0.36403
674.11117,0.3609
673.14677,0.35983
672.18238,0.36444
671.21798,0.3787
670.25359,0.4046
669.2892,0.4372
668.3248,0.46011
667.36041,0.45535
666.39602,0.42721
665.43162,0.39476
664.46723,0.36946
663.50284,0.35336
662.53844,0.34469
661.57405,0.34112
660.60965,0.34057
659.64526,0.34127
658.68087,0.34206
657.71647,0.34241
656.75208,0.34205
655.78769,0.34055
654.82329,0.33769
653.8589,0.3341
652.89451,0.33058
651.93011,0.32763
650.96572,0.32584
650.00132,0.32601
649.03693,0.32848
648.07254,0.33264
647.10814,0.33739
646.14375,0.34149
645.17936,0.34407
644.21496,0.34442
643.25057,0.34189
642.28618,0.33664
641.32178,0.33021
640.35739,0.32479
639.393,0.32204
638.4286,0.3221
637.46421,0.32329
636.49981,0.32305
635.53542,0.31987
634.57103,0.31413
633.60663,0.30751
632.64224,0.30183
631.67785,0.29805
630.71345,0.29659
629.74906,0.29888
628.78466,0.30772
627.82027,0.32378
626.85588,0.34009
625.89148,0.34586
624.92709,0.33248
623.9627,0.30065
622.9983,0.26537
622.03391,0.24891
621.06952,0.26203
620.10512,0.28828
619.14073,0.29758
618.17633,0.28198
617.21194,0.26297
616.24755,0.26164
615.28315,0.27641
614.31876,0.28945
613.35437,0.28982
612.38997,0.28364
611.42558,0.27767
610.46119,0.27333
609.49679,0.27592
608.5324,0.28584
607.568,0.29299
606.60361,0.2917
605.63922,0.28649
604.67482,0.28288
603.71043,0.28287
602.74604,0.28544
601.78164,0.28646
600.81725,0.28264
599.85285,0.27552
