Wavenumber,Transmission
cm^{-1},a.u.
3995.4829,0.99461
3994.5185,0.99377
3993.5541,0.99298
3992.5897,0.99254
3991.6253,0.99219
3990.6609,0.99229
3989.6966,0.99264
3988.7322,0.99308
3987.7678,0.99333
3986.8034,0.99288
3985.839,0.99219
3984.8746,0.99155
3983.9102,0.9914
3982.9458,0.99234
3981.9814,0.99367
3981.017,0.99387
3980.0526,0.99392
3979.0882,0.99481
3978.1238,0.99511
3977.1594,0.99456
3976.195,0.99461
3975.2306,0.99555
3974.2663,0.99649
3973.3019,0.99659
3972.3375,0.99595
3971.3731,0.9955
3970.4087,0.99545
3969.4443,0.99511
3968.4799,0.99456
3967.5155,0.99432
3966.5511,0.99447
3965.5867,0.99511
3964.6223,0.99521
3963.6579,0.99392
3962.6935,0.99234
3961.7291,0.99155
3960.7647,0.99125
3959.8004,0.9911
3958.836,0.99165
3957.8716,0.99318
3956.9072,0.99442
3955.9428,0.99447
3954.9784,0.99387
3954.014,0.99333
3953.0496,0.99254
3952.0852,0.99214
3951.1208,0.99293
3950.1564,0.99456
3949.192,0.9955
3948.2276,0.99476
3947.2632,0.99353
3946.2988,0.99308
3945.3344,0.99303
3944.3701,0.99293
3943.4057,0.99333
3942.4413,0.99412
3941.4769,0.99476
3940.5125,0.99486
3939.5481,0.99476
3938.5837,0.99506
3937.6193,0.99486
3936.6549,0.99392
3935.6905,0.99382
3934.7261,0.99476
3933.7617,0.99555
3932.7973,0.99565
3931.8329,0.99545
3930.8686,0.9955
3929.9041,0.9956
3928.9398,0.99506
3927.9754,0.99432
3927.011,0.99422
3926.0466,0.99516
3925.0822,0.99639
3924.1178,0.99615
3923.1534,0.99456
3922.189,0.99358
3921.2246,0.99392
3920.2602,0.99491
3919.2958,0.99526
3918.3314,0.99427
3917.367,0.99259
3916.4026,0.99204
3915.4383,0.99269
3914.4738,0.99382
3913.5095,0.99501
3912.5451,0.9958
3911.5807,0.99575
3910.6163,0.99486
3909.6519,0.99382
3908.6875,0.99377
3907.7231,0.99486
3906.7587,0.99585
3905.7943,0.9954
3904.8299,0.99382
3903.8655,0.99323
3902.9011,0.99442
3901.9367,0.99555
3900.9723,0.99615
3900.008,0.99659
3899.0436,0.99684
3898.0792,0.99718
3897.1148,0.99778
3896.1504,0.99797
3895.186,0.99817
3894.2216,0.99807
3893.2572,0.99664
3892.2928,0.99486
3891.3284,0.99451
3890.364,0.99521
3889.3996,0.99634
3888.4352,0.99708
3887.4708,0.99605
3886.5064,0.99372
3885.542,0.99288
3884.5777,0.99442
3883.6133,0.99669
3882.6489,0.99817
3881.6845,0.99802
3880.7201,0.99644
3879.7557,0.99466
3878.7913,0.99417
3877.8269,0.9956
3876.8625,0.99723
3875.8981,0.99708
3874.9337,0.996
3873.9693,0.9957
3873.0049,0.9959
3872.0405,0.9957
3871.0761,0.99516
3870.1118,0.99516
3869.1474,0.996
3868.183,0.99674
3867.2186,0.99674
3866.2542,0.99634
3865.2898,0.99624
3864.3254,0.99699
3863.361,0.99842
3862.3966,0.99872
3861.4322,0.99753
3860.4678,0.99718
3859.5034,0.99753
3858.539,0.9961
3857.5746,0.99392
3856.6102,0.99333
3855.6458,0.99318
3854.6815,0.99219
3853.7171,0.99175
3852.7527,0.99219
3851.7883,0.99358
3850.8239,0.9958
3849.8595,0.99718
3848.8951,0.99738
3847.9307,0.99718
3846.9663,0.99654
3846.0019,0.99531
3845.0375,0.99412
3844.0731,0.99397
3843.1087,0.99471
3842.1443,0.99545
3841.1799,0.99585
3840.2155,0.99526
3839.2512,0.99318
3838.2868,0.9918
3837.3224,0.99333
3836.358,0.99629
3835.3936,0.99773
3834.4292,0.99718
3833.4648,0.9957
3832.5004,0.99476
3831.536,0.99526
3830.5716,0.99615
3829.6072,0.99624
3828.6428,0.99629
3827.6784,0.99708
3826.714,0.99748
3825.7496,0.99708
3824.7852,0.99649
3823.8209,0.99575
3822.8565,0.99447
3821.8921,0.99358
3820.9277,0.99417
3819.9633,0.99575
3818.9989,0.99694
3818.0345,0.99595
3817.0701,0.99382
3816.1057,0.99363
3815.1413,0.99555
3814.1769,0.99753
3813.2125,0.99852
3812.2481,0.99847
3811.2837,0.99862
3810.3193,0.99906
3809.3549,0.99867
3808.3906,0.99758
3807.4262,0.99664
3806.4618,0.99699
3805.4974,0.99881
3804.533,1
3803.5686,0.99911
3802.6042,0.99703
3801.6398,0.9961
3800.6754,0.99699
3799.711,0.99802
3798.7466,0.99788
3797.7822,0.99718
3796.8178,0.99699
3795.8534,0.99718
3794.889,0.99679
3793.9246,0.99615
3792.9603,0.99634
3791.9959,0.99708
3791.0315,0.99773
3790.0671,0.99857
3789.1027,0.99926
3788.1383,0.99842
3787.1739,0.99694
3786.2095,0.99669
3785.2451,0.99728
3784.2807,0.99743
3783.3163,0.99733
3782.3519,0.99743
3781.3875,0.99723
3780.4231,0.99694
3779.4587,0.99743
3778.4943,0.99822
3777.53,0.99778
3776.5656,0.99649
3775.6012,0.9956
3774.6368,0.99531
3773.6724,0.99501
3772.708,0.99481
3771.7436,0.99496
3770.7792,0.99447
3769.8148,0.99387
3768.8504,0.99496
3767.886,0.9961
3766.9216,0.99619
3765.9572,0.99634
3764.9928,0.99659
3764.0284,0.99659
3763.064,0.99644
3762.0997,0.9959
3761.1353,0.99521
3760.1709,0.99466
3759.2065,0.99407
3758.2421,0.99437
3757.2777,0.9957
3756.3133,0.99659
3755.3489,0.9961
3754.3845,0.99486
3753.4201,0.99372
3752.4557,0.99318
3751.4913,0.99323
3750.5269,0.99244
3749.5625,0.9911
3748.5981,0.99175
3747.6337,0.99412
3746.6694,0.99511
3745.705,0.99372
3744.7406,0.99274
3743.7762,0.99417
3742.8118,0.99615
3741.8474,0.99634
3740.883,0.99496
3739.9186,0.99447
3738.9542,0.99506
3737.9898,0.99486
3737.0254,0.99392
3736.061,0.99387
3735.0966,0.99496
3734.1322,0.99629
3733.1678,0.99699
3732.2034,0.99659
3731.2391,0.99516
3730.2747,0.99392
3729.3103,0.99437
3728.3459,0.9955
3727.3815,0.99565
3726.4171,0.99516
3725.4527,0.99491
3724.4883,0.99516
3723.5239,0.99555
3722.5595,0.9959
3721.5951,0.99634
3720.6307,0.99629
3719.6663,0.9957
3718.7019,0.99535
3717.7375,0.9954
3716.7731,0.9954
3715.8088,0.9958
3714.8444,0.99624
3713.88,0.99595
3712.9156,0.99575
3711.9512,0.99619
3710.9868,0.99664
3710.0224,0.99703
3709.058,0.99684
3708.0936,0.99629
3707.1292,0.99624
3706.1648,0.99605
3705.2004,0.99545
3704.236,0.9955
3703.2716,0.9959
3702.3072,0.996
3701.3429,0.996
3700.3785,0.996
3699.4141,0.99526
3698.4497,0.99417
3697.4853,0.99422
3696.5209,0.9954
3695.5565,0.9961
3694.5921,0.99526
3693.6277,0.99363
3692.6633,0.99274
3691.6989,0.99303
3690.7345,0.99303
3689.7701,0.9918
3688.8057,0.9914
3687.8413,0.99279
3686.8769,0.99367
3685.9126,0.99323
3684.9482,0.99308
3683.9838,0.99343
3683.0194,0.99318
3682.055,0.99264
3681.0906,0.99264
3680.1262,0.99229
3679.1618,0.9918
3678.1974,0.99209
3677.233,0.99239
3676.2686,0.9912
3675.3042,0.98977
3674.3398,0.99056
3673.3754,0.99195
3672.4111,0.99076
3671.4466,0.98844
3670.4823,0.9874
3669.5179,0.98705
3668.5535,0.9872
3667.5891,0.98809
3666.6247,0.98938
3665.6603,0.99066
3664.6959,0.99051
3663.7315,0.98814
3662.7671,0.98547
3661.8027,0.98433
3660.8383,0.98354
3659.8739,0.98216
3658.9095,0.98157
3657.9451,0.98152
3656.9808,0.98083
3656.0163,0.98063
3655.052,0.98196
3654.0876,0.9827
3653.1232,0.98211
3652.1588,0.98142
3651.1944,0.98048
3650.23,0.97811
3649.2656,0.97544
3648.3012,0.97435
3647.3368,0.9747
3646.3724,0.975
3645.408,0.97455
3644.4436,0.97415
3643.4792,0.97475
3642.5148,0.97569
3641.5505,0.97514
3640.5861,0.97287
3639.6217,0.9702
3638.6573,0.96813
3637.6929,0.96738
3636.7285,0.96758
3635.7641,0.96778
3634.7997,0.96768
3633.8353,0.96719
3632.8709,0.9663
3631.9065,0.96526
3630.9421,0.96398
3629.9777,0.96239
3629.0133,0.96086
3628.0489,0.95987
3627.0845,0.95943
3626.1202,0.95908
3625.1558,0.95849
3624.1914,0.9575
3623.227,0.95666
3622.2626,0.95612
3621.2982,0.95503
3620.3338,0.95286
3619.3694,0.95048
3618.405,0.94861
3617.4406,0.94727
3616.4762,0.94688
3615.5118,0.94732
3614.5474,0.94698
3613.583,0.945
3612.6186,0.94292
3611.6543,0.94228
3610.6899,0.94233
3609.7255,0.94159
3608.7611,0.9405
3607.7967,0.94035
3606.8323,0.94075
3605.8679,0.94006
3604.9035,0.93759
3603.9391,0.93502
3602.9747,0.93442
3602.0103,0.93492
3601.0459,0.93477
3600.0815,0.93344
3599.1171,0.93185
3598.1527,0.93062
3597.1883,0.92869
3596.224,0.92686
3595.2596,0.92676
3594.2952,0.92676
3593.3308,0.92543
3592.3664,0.92415
3591.402,0.92335
3590.4376,0.92222
3589.4732,0.92083
3588.5088,0.91945
3587.5444,0.91802
3586.58,0.91658
3585.6156,0.91525
3584.6512,0.91426
3583.6868,0.91347
3582.7224,0.91322
3581.758,0.91313
3580.7937,0.91164
3579.8292,0.90996
3578.8649,0.90967
3577.9005,0.90932
3576.9361,0.90739
3575.9717,0.90571
3575.0073,0.90571
3574.0429,0.90571
3573.0785,0.90423
3572.1141,0.90215
3571.1497,0.90127
3570.1853,0.90072
3569.2209,0.89865
3568.2565,0.89558
3567.2921,0.89351
3566.3277,0.89227
3565.3634,0.89074
3564.399,0.88886
3563.4346,0.88768
3562.4702,0.88768
3561.5058,0.88787
3560.5414,0.88713
3559.577,0.8858
3558.6126,0.88446
3557.6482,0.88303
3556.6838,0.88125
3555.7194,0.87927
3554.755,0.87774
3553.7906,0.87661
3552.8262,0.87517
3551.8618,0.87389
3550.8974,0.87339
3549.9331,0.87354
3548.9687,0.87315
3548.0043,0.87068
3547.0399,0.86707
3546.0755,0.8646
3545.1111,0.86381
3544.1467,0.86361
3543.1823,0.86272
3542.2179,0.86134
3541.2535,0.86025
3540.2891,0.85951
3539.3247,0.85862
3538.3603,0.85709
3537.3959,0.85496
3536.4315,0.85244
3535.4671,0.85007
3534.5028,0.84854
3533.5384,0.84809
3532.574,0.84809
3531.6096,0.84666
3530.6452,0.84439
3529.6808,0.8435
3528.7164,0.8429
3527.752,0.84014
3526.7876,0.83613
3525.8232,0.83347
3524.8588,0.83228
3523.8944,0.83169
3522.93,0.83114
3521.9656,0.82986
3521.0012,0.82783
3520.0368,0.82576
3519.0725,0.82398
3518.1081,0.8219
3517.1437,0.81928
3516.1793,0.81647
3515.2149,0.81395
3514.2505,0.81202
3513.2861,0.81029
3512.3217,0.80905
3511.3573,0.80811
3510.3929,0.80559
3509.4285,0.80164
3508.4641,0.79868
3507.4997,0.79734
3506.5353,0.79611
3505.5709,0.79438
3504.6065,0.79314
3503.6422,0.792
3502.6778,0.78953
3501.7134,0.78588
3500.749,0.78262
3499.7846,0.78098
3498.8202,0.7798
3497.8558,0.77743
3496.8914,0.77456
3495.927,0.77174
3494.9626,0.76858
3493.9982,0.76571
3493.0338,0.76384
3492.0694,0.7626
3491.105,0.76137
3490.1406,0.75978
3489.1762,0.75761
3488.2119,0.75465
3487.2475,0.75163
3486.2831,0.74965
3485.3187,0.74852
3484.3543,0.74748
3483.3899,0.7459
3482.4255,0.74372
3481.4611,0.74155
3480.4967,0.73898
3479.5323,0.73587
3478.5679,0.73345
3477.6035,0.73256
3476.6391,0.73196
3475.6747,0.73033
3474.7103,0.72811
3473.7459,0.72682
3472.7816,0.72702
3471.8172,0.72816
3470.8528,0.72826
3469.8884,0.72638
3468.924,0.72376
3467.9596,0.72144
3466.9952,0.71921
3466.0308,0.71748
3465.0664,0.7163
3464.102,0.71521
3463.1376,0.71368
3462.1732,0.71165
3461.2088,0.70948
3460.2444,0.70755
3459.28,0.70587
3458.3157,0.70449
3457.3513,0.7034
3456.3869,0.70236
3455.4225,0.70137
3454.4581,0.70048
3453.4937,0.69964
3452.5293,0.69895
3451.5649,0.69806
3450.6005,0.69579
3449.6361,0.69228
3448.6717,0.68917
3447.7073,0.68769
3446.7429,0.68694
3445.7785,0.68596
3444.8141,0.68487
3443.8497,0.68363
3442.8854,0.68176
3441.921,0.67983
3440.9566,0.67889
3439.9922,0.67825
3439.0278,0.67691
3438.0634,0.67538
3437.099,0.67365
3436.1346,0.67187
3435.1702,0.67108
3434.2058,0.67088
3433.2414,0.6699
3432.277,0.66851
3431.3126,0.66846
3430.3482,0.66935
3429.3838,0.67014
3428.4194,0.67044
3427.4551,0.6699
3426.4907,0.66866
3425.5263,0.66826
3424.5619,0.66945
3423.5975,0.67113
3422.6331,0.67202
3421.6687,0.67256
3420.7043,0.6735
3419.7399,0.67429
3418.7755,0.67424
3417.8111,0.6736
3416.8467,0.67335
3415.8823,0.67429
3414.9179,0.67533
3413.9536,0.67563
3412.9891,0.67543
3412.0248,0.67523
3411.0604,0.67538
3410.096,0.67563
3409.1316,0.67558
3408.1672,0.67518
3407.2028,0.67469
3406.2384,0.67464
3405.274,0.67464
3404.3096,0.67464
3403.3452,0.67518
3402.3808,0.67578
3401.4164,0.67632
3400.452,0.67711
3399.4876,0.67716
3398.5233,0.67607
3397.5588,0.67503
3396.5945,0.67434
3395.6301,0.6737
3394.6657,0.67355
3393.7013,0.674
3392.7369,0.67365
3391.7725,0.67261
3390.8081,0.67237
3389.8437,0.67217
3388.8793,0.67143
3387.9149,0.67078
3386.9505,0.67014
3385.9861,0.66985
3385.0217,0.67064
3384.0573,0.67162
3383.093,0.67202
3382.1286,0.67212
3381.1642,0.67182
3380.1998,0.67113
3379.2354,0.67044
3378.271,0.66975
3377.3066,0.6692
3376.3422,0.66915
3375.3778,0.6691
3374.4134,0.66925
3373.449,0.66965
3372.4846,0.6696
3371.5202,0.66925
3370.5558,0.6692
3369.5914,0.66876
3368.627,0.66777
3367.6627,0.66718
3366.6983,0.66723
3365.7339,0.66752
3364.7695,0.66792
3363.8051,0.66836
3362.8407,0.66831
3361.8763,0.66733
3360.9119,0.66584
3359.9475,0.66471
3358.9831,0.66421
3358.0187,0.66411
3357.0543,0.66436
3356.0899,0.66466
3355.1255,0.66456
3354.1611,0.66382
3353.1968,0.66278
3352.2324,0.66248
3351.268,0.66317
3350.3036,0.66357
3349.3392,0.66322
3348.3748,0.66238
3347.4104,0.66135
3346.446,0.66016
3345.4816,0.65927
3344.5172,0.65902
3343.5528,0.65888
3342.5884,0.65942
3341.624,0.66085
3340.6596,0.6614
3339.6952,0.65981
3338.7308,0.65739
3337.7665,0.65561
3336.802,0.65502
3335.8377,0.65547
3334.8733,0.65645
3333.9089,0.657
3332.9445,0.65631
3331.9801,0.65428
3331.0157,0.65206
3330.0513,0.65067
3329.0869,0.65042
3328.1225,0.65047
3327.1581,0.65003
3326.1937,0.64954
3325.2293,0.64865
3324.2649,0.64731
3323.3005,0.64642
3322.3362,0.64578
3321.3717,0.64479
3320.4074,0.6438
3319.443,0.64272
3318.4786,0.64079
3317.5142,0.63827
3316.5498,0.63679
3315.5854,0.63713
3314.621,0.63743
3313.6566,0.63609
3312.6922,0.63417
3311.7278,0.63249
3310.7634,0.63091
3309.799,0.62942
3308.8346,0.62789
3307.8702,0.62611
3306.9059,0.62478
3305.9415,0.62389
3304.9771,0.62206
3304.0127,0.61939
3303.0483,0.61697
3302.0839,0.61514
3301.1195,0.6142
3300.1551,0.61307
3299.1907,0.6104
3298.2263,0.60699
3297.2619,0.60417
3296.2975,0.60185
3295.3331,0.59992
3294.3687,0.59849
3293.4043,0.59661
3292.4399,0.59335
3291.4756,0.58915
3290.5112,0.58584
3289.5468,0.58342
3288.5824,0.58109
3287.618,0.57936
3286.6536,0.57783
3285.6892,0.57541
3284.7248,0.57274
3283.7604,0.57086
3282.796,0.56968
3281.8316,0.56839
3280.8672,0.56711
3279.9028,0.56607
3278.9384,0.56533
3277.974,0.56464
3277.0096,0.5633
3276.0453,0.56143
3275.0809,0.56039
3274.1165,0.56034
3273.1521,0.55975
3272.1877,0.55861
3271.2233,0.55777
3270.2589,0.55718
3269.2945,0.55698
3268.3301,0.55777
3267.3657,0.55905
3266.4013,0.5592
3265.4369,0.55806
3264.4725,0.55688
3263.5081,0.55634
3262.5437,0.55604
3261.5793,0.55584
3260.615,0.55634
3259.6506,0.55757
3258.6862,0.559
3257.7218,0.56039
3256.7574,0.56128
3255.793,0.56192
3254.8286,0.56281
3253.8642,0.5639
3252.8998,0.56548
3251.9354,0.56731
3250.971,0.56913
3250.0066,0.57111
3249.0422,0.57304
3248.0778,0.57467
3247.1134,0.5761
3246.149,0.57768
3245.1847,0.57971
3244.2203,0.58164
3243.2559,0.58347
3242.2915,0.58628
3241.3271,0.58935
3240.3627,0.59078
3239.3983,0.59127
3238.4339,0.5928
3237.4695,0.59572
3236.5051,0.59878
3235.5407,0.60071
3234.5763,0.60185
3233.6119,0.60303
3232.6475,0.60442
3231.6831,0.6057
3230.7188,0.60699
3229.7544,0.60798
3228.79,0.60882
3227.8256,0.6104
3226.8612,0.61228
3225.8968,0.61341
3224.9324,0.61391
3223.968,0.61509
3223.0036,0.61712
3222.0392,0.61895
3221.0748,0.62003
3220.1104,0.62063
3219.146,0.62097
3218.1816,0.62161
3217.2172,0.623
3216.2528,0.62522
3215.2885,0.6275
3214.3241,0.62927
3213.3597,0.63125
3212.3953,0.63323
3211.4309,0.63481
3210.4665,0.63654
3209.5021,0.63856
3208.5377,0.64039
3207.5733,0.64173
3206.6089,0.64281
3205.6445,0.64395
3204.6801,0.64534
3203.7157,0.64697
3202.7513,0.6486
3201.7869,0.64944
3200.8225,0.65038
3199.8582,0.65186
3198.8938,0.65299
3197.9294,0.65374
3196.965,0.65467
3196.0006,0.65626
3195.0362,0.65873
3194.0718,0.66154
3193.1074,0.66342
3192.143,0.66441
3191.1786,0.66574
3190.2142,0.66812
3189.2498,0.67113
3188.2854,0.6736
3187.321,0.67518
3186.3566,0.67622
3185.3922,0.67741
3184.4279,0.67909
3183.4635,0.68072
3182.4991,0.68171
3181.5347,0.682
3180.5703,0.68225
3179.6059,0.68388
3178.6415,0.68719
3177.6771,0.69035
3176.7127,0.69233
3175.7483,0.69386
3174.7839,0.69544
3173.8195,0.69643
3172.8551,0.69693
3171.8907,0.69787
3170.9263,0.69959
3169.9619,0.70108
3168.9976,0.70172
3168.0332,0.70276
3167.0688,0.70454
3166.1044,0.70632
3165.14,0.70814
3164.1756,0.70997
3163.2112,0.7116
3162.2468,0.71323
3161.2824,0.71467
3160.318,0.71521
3159.3536,0.71511
3158.3892,0.7157
3157.4248,0.71768
3156.4604,0.72
3155.4961,0.72193
3154.5316,0.72386
3153.5673,0.72554
3152.6029,0.72633
3151.6385,0.72618
3150.6741,0.72559
3149.7097,0.72544
3148.7453,0.72603
3147.7809,0.72712
3146.8165,0.72845
3145.8521,0.72979
3144.8877,0.73083
3143.9233,0.73162
3142.9589,0.73181
3141.9945,0.73157
3141.0301,0.73191
3140.0658,0.73241
3139.1013,0.73275
3138.137,0.73345
3137.1726,0.73374
3136.2082,0.73379
3135.2438,0.73433
3134.2794,0.73478
3133.315,0.73409
3132.3506,0.73315
3131.3862,0.73265
3130.4218,0.73211
3129.4574,0.73132
3128.493,0.73088
3127.5286,0.73043
3126.5642,0.72964
3125.5998,0.7288
3124.6355,0.72806
3123.671,0.72707
3122.7067,0.72559
3121.7423,0.72386
3120.7779,0.72257
3119.8135,0.72238
3118.8491,0.72218
3117.8847,0.72129
3116.9203,0.72015
3115.9559,0.71911
3114.9915,0.71808
3114.0271,0.71679
3113.0627,0.71491
3112.0983,0.71269
3111.1339,0.71121
3110.1695,0.71091
3109.2051,0.71071
3108.2408,0.70992
3107.2764,0.70948
3106.312,0.70968
3105.3476,0.70958
3104.3832,0.70908
3103.4188,0.70913
3102.4544,0.70963
3101.49,0.70958
3100.5256,0.70898
3099.5612,0.70889
3098.5968,0.70977
3097.6324,0.71071
3096.668,0.71081
3095.7036,0.7115
3094.7393,0.71333
3093.7748,0.71457
3092.8105,0.71437
3091.8461,0.71378
3090.8817,0.71363
3089.9173,0.71472
3088.9529,0.71659
3087.9885,0.71822
3087.0241,0.71951
3086.0597,0.72114
3085.0953,0.72292
3084.1309,0.72376
3083.1665,0.72346
3082.2021,0.72361
3081.2377,0.72539
3080.2733,0.72786
3079.309,0.72999
3078.3445,0.73201
3077.3802,0.73424
3076.4158,0.73606
3075.4514,0.7369
3074.487,0.73779
3073.5226,0.73942
3072.5582,0.74125
3071.5938,0.74293
3070.6294,0.74486
3069.665,0.74674
3068.7006,0.74807
3067.7362,0.74876
3066.7718,0.74936
3065.8074,0.75035
3064.843,0.75163
3063.8787,0.75297
3062.9142,0.7546
3061.9499,0.75667
3060.9855,0.75835
3060.0211,0.75939
3059.0567,0.76018
3058.0923,0.76122
3057.1279,0.7626
3056.1635,0.76448
3055.1991,0.7666
3054.2347,0.76833
3053.2703,0.76932
3052.3059,0.77016
3051.3415,0.77189
3050.3771,0.77367
3049.4127,0.77412
3048.4484,0.77416
3047.484,0.77525
3046.5196,0.77664
3045.5552,0.77812
3044.5908,0.77995
3043.6264,0.78123
3042.662,0.78187
3041.6976,0.78326
3040.7332,0.78504
3039.7688,0.78573
3038.8044,0.78593
3037.84,0.78682
3036.8756,0.78756
3035.9112,0.78766
3034.9468,0.78845
3033.9824,0.79042
3033.0181,0.79215
3032.0537,0.79265
3031.0893,0.79265
3030.1249,0.79304
3029.1605,0.79388
3028.1961,0.79448
3027.2317,0.79477
3026.2673,0.79546
3025.3029,0.79665
3024.3385,0.79818
3023.3741,0.79947
3022.4097,0.79976
3021.4453,0.79947
3020.4809,0.79971
3019.5165,0.80065
3018.5521,0.80164
3017.5878,0.80243
3016.6234,0.80312
3015.659,0.80401
3014.6946,0.8048
3013.7302,0.80495
3012.7658,0.8048
3011.8014,0.8049
3010.837,0.8049
3009.8726,0.80456
3008.9082,0.80451
3007.9438,0.80466
3006.9794,0.80436
3006.015,0.80451
3005.0506,0.80545
3004.0862,0.80609
3003.1218,0.80619
3002.1575,0.80648
3001.1931,0.80762
3000.2287,0.80925
2999.2643,0.8095
2998.2999,0.80787
2997.3355,0.80658
2996.3711,0.80614
2995.4067,0.8055
2994.4423,0.80456
2993.4779,0.80377
2992.5135,0.80337
2991.5491,0.80332
2990.5847,0.80263
2989.6203,0.80139
2988.6559,0.80115
2987.6916,0.80179
2986.7272,0.80189
2985.7628,0.8008
2984.7984,0.79863
2983.834,0.7963
2982.8696,0.79438
2981.9052,0.79255
2980.9408,0.79008
2979.9764,0.78721
2979.012,0.78469
2978.0476,0.78291
2977.0832,0.78168
2976.1188,0.78069
2975.1544,0.77945
2974.19,0.77812
2973.2256,0.77718
2972.2613,0.77565
2971.2969,0.77293
2970.3325,0.77001
2969.3681,0.76799
2968.4037,0.76685
2967.4393,0.76591
2966.4749,0.76458
2965.5105,0.76275
2964.5461,0.76097
2963.5817,0.75944
2962.6173,0.75781
2961.6529,0.75657
2960.6885,0.75637
2959.7241,0.75697
2958.7597,0.75746
2957.7953,0.75761
2956.831,0.75786
2955.8666,0.75855
2954.9022,0.75998
2953.9378,0.76216
2952.9734,0.76458
2952.009,0.7666
2951.0446,0.76784
2950.0802,0.76828
2949.1158,0.76789
2948.1514,0.76705
2947.187,0.76646
2946.2226,0.76576
2945.2582,0.76418
2944.2938,0.76181
2943.3294,0.75954
2942.365,0.75786
2941.4007,0.75642
2940.4363,0.75489
2939.4719,0.75306
2938.5075,0.75094
2937.5431,0.74931
2936.5787,0.74827
2935.6143,0.74748
2934.6499,0.74733
2933.6855,0.74758
2932.7211,0.74788
2931.7567,0.74842
2930.7923,0.74891
2929.8279,0.74946
2928.8635,0.75059
2927.8991,0.75168
2926.9347,0.75188
2925.9704,0.75178
2925.006,0.75178
2924.0416,0.75212
2923.0772,0.75292
2922.1128,0.75445
2921.1484,0.75652
2920.184,0.75761
2919.2196,0.75731
2918.2552,0.75692
2917.2908,0.75692
2916.3264,0.75682
2915.362,0.75667
2914.3976,0.75657
2913.4332,0.75633
2912.4688,0.75647
2911.5044,0.75721
2910.5401,0.7583
2909.5757,0.75974
2908.6113,0.76097
2907.6469,0.76146
2906.6825,0.76156
2905.7181,0.76216
2904.7537,0.7629
2903.7893,0.763
2902.8249,0.76305
2901.8605,0.76364
2900.8961,0.76428
2899.9317,0.76443
2898.9673,0.76389
2898.0029,0.76265
2897.0386,0.76132
2896.0741,0.76033
2895.1098,0.75934
2894.1454,0.75815
2893.181,0.75682
2892.2166,0.75578
2891.2522,0.75494
2890.2878,0.7545
2889.3234,0.7546
2888.359,0.7545
2887.3946,0.7539
2886.4302,0.75376
2885.4658,0.75356
2884.5014,0.75257
2883.537,0.75173
2882.5726,0.75114
2881.6083,0.74985
2880.6438,0.74827
2879.6795,0.74728
2878.7151,0.74624
2877.7507,0.74506
2876.7863,0.74407
2875.8219,0.74298
2874.8575,0.74209
2873.8931,0.74229
2872.9287,0.74313
2871.9643,0.74372
2870.9999,0.74422
2870.0355,0.74496
2869.0711,0.74575
2868.1067,0.74694
2867.1423,0.74852
2866.1779,0.75035
2865.2135,0.75282
2864.2492,0.75578
2863.2848,0.75835
2862.3204,0.76028
2861.356,0.76235
2860.3916,0.76522
2859.4272,0.76823
2858.4628,0.77066
2857.4984,0.77278
2856.534,0.77466
2855.5696,0.77634
2854.6052,0.77837
2853.6408,0.78069
2852.6764,0.78276
2851.712,0.78504
2850.7476,0.78726
2849.7833,0.78845
2848.8189,0.78953
2847.8545,0.79181
2846.8901,0.79452
2845.9257,0.7964
2844.9613,0.79798
2843.9969,0.80016
2843.0325,0.80263
2842.0681,0.80436
2841.1037,0.80475
2840.1393,0.8053
2839.1749,0.80698
2838.2105,0.80871
2837.2461,0.8094
2836.2818,0.8096
2835.3173,0.81034
2834.353,0.81162
2833.3886,0.81311
2832.4242,0.81419
2831.4598,0.81474
2830.4954,0.81518
2829.531,0.81602
2828.5666,0.81701
2827.6022,0.8178
2826.6378,0.81829
2825.6734,0.81859
2824.709,0.81948
2823.7446,0.82151
2822.7802,0.82378
2821.8158,0.82492
2820.8515,0.82546
2819.887,0.82595
2818.9227,0.8263
2817.9583,0.82699
2816.9939,0.82803
2816.0295,0.82892
2815.0651,0.83001
2814.1007,0.83129
2813.1363,0.83228
2812.1719,0.83287
2811.2075,0.83312
2810.2431,0.83366
2809.2787,0.83475
2808.3143,0.83584
2807.3499,0.83668
2806.3855,0.83767
2805.4212,0.83885
2804.4567,0.83979
2803.4924,0.84038
2802.528,0.84093
2801.5636,0.84162
2800.5992,0.84236
2799.6348,0.8435
2798.6704,0.84483
2797.706,0.84602
2796.7416,0.84676
2795.7772,0.8473
2794.8128,0.84799
2793.8484,0.84839
2792.884,0.84834
2791.9196,0.84869
2790.9552,0.84948
2789.9909,0.85027
2789.0265,0.85106
2788.0621,0.85185
2787.0977,0.85274
2786.1333,0.85358
2785.1689,0.85432
2784.2045,0.85471
2783.2401,0.85481
2782.2757,0.85506
2781.3113,0.8559
2780.3469,0.85664
2779.3825,0.85674
2778.4181,0.85704
2777.4537,0.85788
2776.4893,0.85847
2775.5249,0.85837
2774.5606,0.85812
2773.5962,0.85842
2772.6318,0.85896
2771.6674,0.85956
2770.703,0.86025
2769.7386,0.8605
2768.7742,0.86074
2767.8098,0.86163
2766.8454,0.86237
2765.881,0.86242
2764.9166,0.86223
2763.9522,0.86193
2762.9878,0.86153
2762.0234,0.86144
2761.059,0.86228
2760.0947,0.86381
2759.1303,0.86504
2758.1659,0.86564
2757.2015,0.86608
2756.2371,0.86657
2755.2727,0.86682
2754.3083,0.86677
2753.3439,0.86682
2752.3795,0.86727
2751.4151,0.86796
2750.4507,0.86855
2749.4863,0.8689
2748.5219,0.869
2747.5575,0.869
2746.5931,0.86919
2745.6287,0.86949
2744.6644,0.86969
2743.7,0.86989
2742.7356,0.87038
2741.7712,0.87102
2740.8068,0.87171
2739.8424,0.87231
2738.878,0.8725
2737.9136,0.8725
2736.9492,0.87255
2735.9848,0.87265
2735.0204,0.87295
2734.056,0.873
2733.0916,0.8728
2732.1272,0.8731
2731.1628,0.87359
2730.1984,0.87339
2729.2341,0.87315
2728.2697,0.8732
2727.3053,0.87349
2726.3409,0.87404
2725.3765,0.87483
2724.4121,0.87547
2723.4477,0.87586
2722.4833,0.87616
2721.5189,0.87651
2720.5545,0.87666
2719.5901,0.87651
2718.6257,0.87626
2717.6613,0.87636
2716.6969,0.87685
2715.7325,0.8772
2714.7681,0.87725
2713.8038,0.87705
2712.8394,0.87715
2711.875,0.87784
2710.9106,0.87834
2709.9462,0.87853
2708.9818,0.87863
2708.0174,0.87853
2707.053,0.87858
2706.0886,0.87913
2705.1242,0.87977
2704.1598,0.88021
2703.1954,0.88051
2702.231,0.8813
2701.2666,0.88219
2700.3022,0.88229
2699.3378,0.88179
2698.3735,0.8815
2697.4091,0.8817
2696.4447,0.88209
2695.4803,0.88259
2694.5159,0.88313
2693.5515,0.88392
2692.5871,0.88481
2691.6227,0.8854
2690.6583,0.8854
2689.6939,0.88511
2688.7295,0.88461
2687.7651,0.88441
2686.8007,0.88491
2685.8363,0.8856
2684.8719,0.88585
2683.9075,0.8859
2682.9432,0.88604
2681.9788,0.8859
2681.0144,0.8857
2680.05,0.8858
2679.0856,0.88634
2678.1212,0.88708
2677.1568,0.88768
2676.1924,0.88797
2675.228,0.88768
2674.2636,0.88708
2673.2992,0.88728
2672.3348,0.88832
2671.3704,0.88881
2670.406,0.88832
2669.4416,0.88792
2668.4772,0.88837
2667.5129,0.88911
2666.5485,0.88945
2665.5841,0.88906
2664.6197,0.88837
2663.6553,0.88772
2662.6909,0.88733
2661.7265,0.88718
2660.7621,0.88693
2659.7977,0.88703
2658.8333,0.88763
2657.8689,0.88812
2656.9045,0.88782
2655.9401,0.88708
2654.9757,0.88654
2654.0113,0.88639
2653.0469,0.88644
2652.0826,0.88664
2651.1182,0.88684
2650.1538,0.88679
2649.1894,0.88654
2648.225,0.88609
2647.2606,0.88565
2646.2962,0.88511
2645.3318,0.88501
2644.3674,0.8857
2643.403,0.88634
2642.4386,0.88619
2641.4742,0.8854
2640.5098,0.88516
2639.5454,0.88619
2638.581,0.88723
2637.6166,0.88738
2636.6523,0.88728
2635.6879,0.88718
2634.7235,0.88644
2633.7591,0.88535
2632.7947,0.8853
2631.8303,0.88644
2630.8659,0.88708
2629.9015,0.88634
2628.9371,0.8854
2627.9727,0.8855
2627.0083,0.88634
2626.0439,0.88664
2625.0795,0.88639
2624.1151,0.88614
2623.1507,0.88609
2622.1863,0.88609
2621.222,0.88575
2620.2576,0.88496
2619.2932,0.88471
2618.3288,0.88516
2617.3644,0.88545
2616.4,0.88585
2615.4356,0.88674
2614.4712,0.88713
2613.5068,0.88693
2612.5424,0.88703
2611.578,0.88772
2610.6136,0.88856
2609.6492,0.88916
2608.6848,0.88906
2607.7204,0.88837
2606.756,0.88748
2605.7917,0.88679
2604.8273,0.88718
2603.8629,0.88852
2602.8985,0.88965
2601.9341,0.89039
2600.9697,0.89069
2600.0053,0.89005
2599.0409,0.88901
2598.0765,0.88856
2597.1121,0.88817
2596.1477,0.88768
2595.1833,0.88738
2594.2189,0.88753
2593.2545,0.88847
2592.2901,0.8897
2591.3258,0.89039
2590.3614,0.89025
2589.397,0.8897
2588.4326,0.8897
2587.4682,0.89054
2586.5038,0.89094
2585.5394,0.8901
2584.575,0.88931
2583.6106,0.88975
2582.6462,0.89034
2581.6818,0.89034
2580.7174,0.89059
2579.753,0.89148
2578.7886,0.89202
2577.8243,0.89202
2576.8598,0.89207
2575.8955,0.89178
2574.9311,0.89118
2573.9667,0.89104
2573.0023,0.89133
2572.0379,0.89148
2571.0735,0.89163
2570.1091,0.89193
2569.1447,0.89217
2568.1803,0.89267
2567.2159,0.89311
2566.2515,0.89321
2565.2871,0.89301
2564.3227,0.89257
2563.3583,0.89232
2562.394,0.89281
2561.4295,0.89375
2560.4652,0.8944
2559.5008,0.89484
2558.5364,0.89538
2557.572,0.89543
2556.6076,0.89563
2555.6432,0.89657
2554.6788,0.89721
2553.7144,0.89746
2552.75,0.89771
2551.7856,0.89711
2550.8212,0.89593
2549.8568,0.89603
2548.8924,0.89761
2547.928,0.89884
2546.9637,0.89889
2545.9992,0.8987
2545.0349,0.89919
2544.0705,0.89973
2543.1061,0.89909
2542.1417,0.89825
2541.1773,0.89835
2540.2129,0.89889
2539.2485,0.89954
2538.2841,0.89988
2537.3197,0.89968
2536.3553,0.89998
2535.3909,0.90072
2534.4265,0.90052
2533.4621,0.89968
2532.4977,0.89949
2531.5334,0.89978
2530.569,0.89998
2529.6046,0.90038
2528.6402,0.90117
2527.6758,0.90191
2526.7114,0.90215
2525.747,0.90166
2524.7826,0.90087
2523.8182,0.90018
2522.8538,0.89998
2521.8894,0.90077
2520.925,0.90181
2519.9606,0.9022
2518.9962,0.9026
2518.0318,0.90344
2517.0674,0.90403
2516.1031,0.90383
2515.1387,0.9028
2514.1743,0.90166
2513.2099,0.90166
2512.2455,0.90304
2511.2811,0.90423
2510.3167,0.90393
2509.3523,0.90275
2508.3879,0.90255
2507.4235,0.90418
2506.4591,0.90596
2505.4947,0.90665
2504.5303,0.9069
2503.5659,0.90734
2502.6015,0.90754
2501.6372,0.90715
2500.6728,0.90645
2499.7084,0.90596
2498.744,0.90621
2497.7796,0.90631
2496.8152,0.90601
2495.8508,0.9069
2494.8864,0.90868
2493.922,0.90962
2492.9576,0.90972
2491.9932,0.90981
2491.0288,0.90981
2490.0644,0.90996
2489.1,0.91095
2488.1356,0.91169
2487.1712,0.91115
2486.2069,0.91026
2485.2425,0.90967
2484.2781,0.90927
2483.3137,0.90922
2482.3493,0.90972
2481.3849,0.9106
2480.4205,0.91164
2479.4561,0.91248
2478.4917,0.91258
2477.5273,0.91224
2476.5629,0.91214
2475.5985,0.91263
2474.6341,0.91298
2473.6697,0.91238
2472.7053,0.91184
2471.7409,0.91253
2470.7766,0.91357
2469.8122,0.91387
2468.8478,0.91367
2467.8834,0.91406
2466.919,0.9153
2465.9546,0.91594
2464.9902,0.9154
2464.0258,0.91515
2463.0614,0.91579
2462.097,0.91619
2461.1326,0.91579
2460.1682,0.9156
2459.2038,0.91589
2458.2394,0.91624
2457.275,0.91663
2456.3106,0.91658
2455.3463,0.91609
2454.3819,0.91609
2453.4175,0.91723
2452.4531,0.91881
2451.4887,0.91955
2450.5243,0.9196
2449.5599,0.92024
2448.5955,0.92074
2447.6311,0.92024
2446.6667,0.9196
2445.7023,0.9195
2444.7379,0.91985
2443.7735,0.92034
2442.8091,0.92014
2441.8447,0.91945
2440.8803,0.9193
2439.916,0.92029
2438.9516,0.92172
2437.9872,0.92276
2437.0228,0.92316
2436.0584,0.92296
2435.094,0.92281
2434.1296,0.92365
2433.1652,0.92464
2432.2008,0.92464
2431.2364,0.92454
2430.272,0.92523
2429.3076,0.92583
2428.3432,0.92528
2427.3788,0.9239
2426.4144,0.92335
2425.45,0.92424
2424.4857,0.92568
2423.5213,0.92686
2422.5569,0.92741
2421.5925,0.92746
2420.6281,0.92755
2419.6637,0.9277
2418.6993,0.92795
2417.7349,0.92889
2416.7705,0.93012
2415.8061,0.92993
2414.8417,0.9281
2413.8773,0.92667
2412.9129,0.92731
2411.9485,0.92924
2410.9841,0.93042
2410.0197,0.93042
2409.0554,0.93062
2408.091,0.93126
2407.1266,0.93166
2406.1622,0.93131
2405.1978,0.93087
2404.2334,0.93136
2403.269,0.9321
2402.3046,0.93255
2401.3402,0.93284
2400.3758,0.93299
2399.4114,0.93324
2398.447,0.93398
2397.4826,0.93442
2396.5182,0.93358
2395.5538,0.9325
2394.5894,0.93344
2393.6251,0.93581
2392.6607,0.93734
2391.6963,0.93749
2390.7319,0.93754
2389.7675,0.93778
2388.8031,0.93773
2387.8387,0.93714
2386.8743,0.9368
2385.9099,0.93709
2384.9455,0.93783
2383.9811,0.93872
2383.0167,0.93937
2382.0523,0.93902
2381.0879,0.93823
2380.1235,0.93783
2379.1591,0.93778
2378.1948,0.93808
2377.2304,0.93857
2376.266,0.93838
2375.3016,0.93773
2374.3372,0.93773
2373.3728,0.93778
2372.4084,0.93704
2371.444,0.9364
2370.4796,0.93675
2369.5152,0.93773
2368.5508,0.93838
2367.5864,0.93813
2366.622,0.93719
2365.6576,0.93645
2364.6932,0.93635
2363.7288,0.93576
2362.7645,0.93442
2361.8001,0.93344
2360.8357,0.93348
2359.8713,0.93408
2358.9069,0.93452
2357.9425,0.93447
2356.9781,0.93428
2356.0137,0.93447
2355.0493,0.93536
2354.0849,0.93685
2353.1205,0.93823
2352.1561,0.93937
2351.1917,0.9406
2350.2273,0.94164
2349.2629,0.94198
2348.2985,0.94174
2347.3342,0.9411
2346.3698,0.9408
2345.4054,0.94045
2344.441,0.93946
2343.4766,0.93838
2342.5122,0.93793
2341.5478,0.93783
2340.5834,0.93749
2339.619,0.93714
2338.6546,0.93749
2337.6902,0.93857
2336.7258,0.93946
2335.7614,0.93937
2334.797,0.93872
2333.8326,0.93818
2332.8683,0.93778
2331.9039,0.93764
2330.9395,0.93793
2329.9751,0.93828
2329.0107,0.93788
2328.0463,0.93689
2327.0819,0.93586
2326.1175,0.93348
2325.1531,0.92894
2324.1887,0.92484
2323.2243,0.9241
2322.2599,0.92573
2321.2955,0.92731
2320.3311,0.92844
2319.3668,0.92988
2318.4023,0.93171
2317.438,0.93299
2316.4736,0.93353
2315.5092,0.93339
2314.5448,0.93284
2313.5804,0.93304
2312.616,0.93442
2311.6516,0.93561
2310.6872,0.93571
2309.7228,0.93645
2308.7584,0.93769
2307.794,0.93793
2306.8296,0.93769
2305.8652,0.93759
2304.9008,0.93724
2303.9365,0.9367
2302.972,0.9365
2302.0077,0.9367
2301.0433,0.93734
2300.0789,0.93843
2299.1145,0.93848
2298.1501,0.93729
2297.1857,0.93625
2296.2213,0.9361
2295.2569,0.9368
2294.2925,0.93739
2293.3281,0.93675
2292.3637,0.93517
2291.3993,0.93368
2290.4349,0.9326
2289.4705,0.9323
2288.5062,0.93269
2287.5417,0.932
2286.5774,0.92993
2285.613,0.92874
2284.6486,0.92919
2283.6842,0.92993
2282.7198,0.92983
2281.7554,0.92993
2280.791,0.93136
2279.8266,0.93289
2278.8622,0.93304
2277.8978,0.93324
2276.9334,0.93487
2275.969,0.93591
2275.0046,0.93467
2274.0402,0.93245
2273.0759,0.932
2272.1115,0.93309
2271.1471,0.93353
2270.1827,0.93334
2269.2183,0.93423
2268.2539,0.93576
2267.2895,0.9363
2266.3251,0.93605
2265.3607,0.93576
2264.3963,0.93576
2263.4319,0.93635
2262.4675,0.93655
2261.5031,0.93581
2260.5387,0.93467
2259.5743,0.93329
2258.6099,0.93215
2257.6456,0.93344
2256.6812,0.93655
2255.7168,0.93828
2254.7524,0.93848
2253.788,0.93793
2252.8236,0.93704
2251.8592,0.93694
2250.8948,0.9365
2249.9304,0.93472
2248.966,0.93388
2248.0016,0.93452
2247.0372,0.93512
2246.0728,0.93571
2245.1084,0.93601
2244.144,0.93556
2243.1797,0.93576
2242.2153,0.93783
2241.2509,0.94045
2240.2865,0.94208
2239.3221,0.94273
2238.3577,0.94223
2237.3933,0.93971
2236.4289,0.93714
2235.4645,0.93764
2234.5001,0.93882
2233.5357,0.93699
2232.5713,0.93452
2231.6069,0.93507
2230.6425,0.93798
2229.6781,0.94055
2228.7137,0.94035
2227.7494,0.93813
2226.785,0.93645
2225.8206,0.93447
2224.8562,0.9318
2223.8918,0.9322
2222.9274,0.93512
2221.963,0.93615
2220.9986,0.93536
2220.0342,0.93467
2219.0698,0.93393
2218.1054,0.93398
2217.141,0.93551
2216.1766,0.93694
2215.2122,0.93828
2214.2478,0.93882
2213.2834,0.9366
2212.3191,0.93353
2211.3547,0.93205
2210.3903,0.93106
2209.4259,0.93037
2208.4615,0.93042
2207.4971,0.93146
2206.5327,0.93452
2205.5683,0.93823
2204.6039,0.93872
2203.6395,0.93492
2202.6751,0.93067
2201.7107,0.92948
2200.7463,0.92909
2199.7819,0.92928
2198.8175,0.93235
2197.8531,0.93413
2196.8888,0.9321
2195.9244,0.93121
2194.96,0.9325
2193.9956,0.93279
2193.0312,0.93146
2192.0668,0.92909
2191.1024,0.92667
2190.138,0.92622
2189.1736,0.92815
2188.2092,0.93077
2187.2448,0.93096
2186.2804,0.92894
2185.316,0.92953
2184.3516,0.93156
2183.3872,0.93072
2182.4228,0.93022
2181.4585,0.93126
2180.4941,0.93195
2179.5297,0.93299
2178.5653,0.93166
2177.6009,0.92839
2176.6365,0.92983
2175.6721,0.93546
2174.7077,0.93833
2173.7433,0.93502
2172.7789,0.92839
2171.8145,0.92419
2170.8501,0.92429
2169.8857,0.92528
2168.9213,0.92479
2167.9569,0.92316
2166.9925,0.91985
2166.0282,0.91742
2165.0638,0.9197
2164.0994,0.92405
2163.135,0.92439
2162.1706,0.9197
2161.2062,0.91416
2160.2418,0.91357
2159.2774,0.92439
2158.313,0.94559
2157.3486,0.96234
2156.3842,0.96516
2155.4198,0.96017
2154.4554,0.95612
2153.491,0.95538
2152.5266,0.95508
2151.5622,0.95261
2150.5979,0.94964
2149.6335,0.94782
2148.6691,0.94663
2147.7047,0.94752
2146.7403,0.95024
2145.7759,0.95132
2144.8115,0.95083
2143.8471,0.95088
2142.8827,0.95039
2141.9183,0.94885
2140.9539,0.94727
2139.9895,0.94515
2139.0251,0.94376
2138.0607,0.9448
2137.0963,0.94688
2136.1319,0.94945
2135.1676,0.95394
2134.2032,0.95755
2133.2388,0.95819
2132.2744,0.95854
2131.31,0.95854
2130.3456,0.95666
2129.3812,0.95473
2128.4168,0.9532
2127.4524,0.95142
2126.488,0.95053
2125.5236,0.95048
2124.5592,0.94989
2123.5948,0.94915
2122.6304,0.94935
2121.666,0.95004
2120.7016,0.94989
2119.7373,0.94846
2118.7729,0.94673
2117.8085,0.94633
2116.8441,0.94673
2115.8797,0.9451
2114.9153,0.94149
2113.9509,0.93946
2112.9865,0.9406
2112.0221,0.94233
2111.0577,0.94248
2110.0933,0.94144
2109.1289,0.9403
2108.1645,0.94001
2107.2001,0.94065
2106.2357,0.94179
2105.2713,0.94297
2104.307,0.94362
2103.3426,0.94253
2102.3782,0.93966
2101.4138,0.93798
2100.4494,0.93991
2099.485,0.94253
2098.5206,0.94297
2097.5562,0.94352
2096.5918,0.94549
2095.6274,0.94801
2094.663,0.95009
2093.6986,0.94984
2092.7342,0.94693
2091.7698,0.94495
2090.8054,0.94658
2089.841,0.94861
2088.8767,0.94707
2087.9123,0.94475
2086.9479,0.94391
2085.9835,0.94233
2085.0191,0.94095
2084.0547,0.9409
2083.0903,0.94016
2082.1259,0.93882
2081.1615,0.93902
2080.1971,0.94001
2079.2327,0.93971
2078.2683,0.93833
2077.3039,0.93734
2076.3395,0.93719
2075.3751,0.93699
2074.4108,0.9366
2073.4464,0.93689
2072.482,0.93818
2071.5176,0.93922
2070.5532,0.93892
2069.5888,0.93813
2068.6244,0.93867
2067.66,0.9403
2066.6956,0.9408
2065.7312,0.93996
2064.7668,0.93951
2063.8024,0.93981
2062.838,0.94075
2061.8736,0.94194
2060.9092,0.94159
2059.9448,0.93966
2058.9805,0.93729
2058.0161,0.93566
2057.0517,0.93521
2056.0873,0.93423
2055.1229,0.9325
2054.1585,0.93373
2053.1941,0.93828
2052.2297,0.93907
2051.2653,0.9318
2050.3009,0.92405
2049.3365,0.92503
2048.3721,0.932
2047.4077,0.93714
2046.4433,0.93961
2045.4789,0.94095
2044.5146,0.94065
2043.5502,0.93808
2042.5858,0.93512
2041.6214,0.93428
2040.657,0.93526
2039.6926,0.9361
2038.7282,0.93472
2037.7638,0.9324
2036.7994,0.93264
2035.835,0.93586
2034.8706,0.93986
2033.9062,0.94208
2032.9418,0.94169
2031.9774,0.94085
2031.013,0.94223
2030.0486,0.94574
2029.0843,0.94851
2028.1199,0.94955
2027.1555,0.94984
2026.1911,0.94959
2025.2267,0.94796
2024.2623,0.9453
2023.2979,0.94258
2022.3335,0.94114
2021.3691,0.94302
2020.4047,0.94638
2019.4403,0.94693
2018.4759,0.94663
2017.5115,0.94816
2016.5471,0.94905
2015.5827,0.95019
2014.6183,0.95276
2013.654,0.95251
2012.6896,0.9495
2011.7252,0.94673
2010.7608,0.94396
2009.7964,0.94282
2008.832,0.94475
2007.8676,0.94698
2006.9032,0.94801
2005.9388,0.9489
2004.9744,0.95019
2004.01,0.95182
2003.0456,0.95266
2002.0812,0.95207
2001.1168,0.95236
2000.1524,0.9537
1999.188,0.95266
1998.2237,0.94885
1997.2593,0.94539
1996.2949,0.94376
1995.3305,0.94381
1994.3661,0.94554
1993.4017,0.94772
1992.4373,0.949
1991.4729,0.94875
1990.5085,0.94737
1989.5441,0.94707
1988.5797,0.94806
1987.6153,0.94806
1986.6509,0.94712
1985.6865,0.94505
1984.7222,0.94203
1983.7577,0.9409
1982.7934,0.94223
1981.829,0.94213
1980.8646,0.93828
1979.9002,0.93339
1978.9358,0.93269
1977.9714,0.93877
1977.007,0.94722
1976.0426,0.95207
1975.0782,0.95261
1974.1138,0.95157
1973.1494,0.95103
1972.185,0.95127
1971.2206,0.95202
1970.2562,0.95409
1969.2919,0.95651
1968.3274,0.95543
1967.3631,0.95182
1966.3987,0.95063
1965.4343,0.95142
1964.4699,0.95266
1963.5055,0.95459
1962.5411,0.95592
1961.5767,0.95627
1960.6123,0.95582
1959.6479,0.95567
1958.6835,0.95913
1957.7191,0.96422
1956.7547,0.96521
1955.7903,0.96274
1954.8259,0.96047
1953.8616,0.95809
1952.8972,0.95478
1951.9328,0.95266
1950.9684,0.95414
1950.004,0.9578
1949.0396,0.95948
1948.0752,0.9579
1947.1108,0.95617
1946.1464,0.95656
1945.182,0.95716
1944.2176,0.95706
1943.2532,0.95834
1942.2888,0.96071
1941.3244,0.96047
1940.36,0.95795
1939.3956,0.95775
1938.4313,0.96007
1937.4669,0.96205
1936.5025,0.96358
1935.5381,0.96393
1934.5737,0.96234
1933.6093,0.9617
1932.6449,0.96309
1931.6805,0.96467
1930.7161,0.96536
1929.7517,0.96521
1928.7873,0.96402
1927.8229,0.96195
1926.8585,0.96071
1925.8941,0.962
1924.9297,0.96432
1923.9653,0.96546
1923.001,0.96521
1922.0366,0.96452
1921.0722,0.96407
1920.1078,0.96338
1919.1434,0.96318
1918.179,0.96417
1917.2146,0.96526
1916.2502,0.96531
1915.2858,0.96383
1914.3214,0.96225
1913.357,0.96249
1912.3926,0.96437
1911.4282,0.96654
1910.4638,0.96768
1909.4994,0.96694
1908.535,0.9658
1907.5706,0.9657
1906.6063,0.96546
1905.6419,0.96482
1904.6775,0.96511
1903.7131,0.9664
1902.7487,0.96758
1901.7843,0.96778
1900.8199,0.96669
1899.8555,0.96541
1898.8911,0.96511
1897.9267,0.96546
1896.9623,0.96506
1895.9979,0.96432
1895.0335,0.96457
1894.0691,0.96575
1893.1047,0.96659
1892.1403,0.96669
1891.176,0.96674
1890.2116,0.96719
1889.2472,0.96788
1888.2828,0.96842
1887.3184,0.96877
1886.354,0.96882
1885.3896,0.96842
1884.4252,0.96822
1883.4608,0.96872
1882.4964,0.96936
1881.532,0.96971
1880.5676,0.96961
1879.6032,0.96941
1878.6388,0.96931
1877.6744,0.96892
1876.7101,0.96857
1875.7457,0.96911
1874.7813,0.96956
1873.8169,0.96926
1872.8525,0.96936
1871.8881,0.9702
1870.9237,0.97079
1869.9593,0.9701
1868.9949,0.96857
1868.0305,0.96813
1867.0661,0.96931
1866.1017,0.9705
1865.1373,0.97079
1864.1729,0.97065
1863.2086,0.97045
1862.2441,0.9703
1861.2798,0.9705
1860.3154,0.97099
1859.351,0.97139
1858.3866,0.97139
1857.4222,0.97124
1856.4578,0.97109
1855.4934,0.97055
1854.529,0.9702
1853.5646,0.97104
1852.6002,0.97233
1851.6358,0.97252
1850.6714,0.97159
1849.707,0.9707
1848.7426,0.9703
1847.7783,0.97015
1846.8139,0.9703
1845.8495,0.97094
1844.8851,0.97168
1843.9207,0.97247
1842.9563,0.97312
1841.9919,0.97307
1841.0275,0.97262
1840.0631,0.97238
1839.0987,0.97267
1838.1343,0.97331
1837.1699,0.97356
1836.2055,0.97346
1835.2411,0.97336
1834.2767,0.97346
1833.3123,0.97356
1832.348,0.97341
1831.3836,0.97322
1830.4192,0.97327
1829.4548,0.97322
1828.4904,0.97307
1827.526,0.97302
1826.5616,0.97287
1825.5972,0.97233
1824.6328,0.97193
1823.6684,0.97208
1822.704,0.97238
1821.7396,0.97238
1820.7752,0.97252
1819.8108,0.97292
1818.8464,0.97366
1817.882,0.97504
1816.9177,0.97633
1815.9533,0.97638
1814.9889,0.97519
1814.0245,0.97391
1813.0601,0.97312
1812.0957,0.97267
1811.1313,0.97238
1810.1669,0.97208
1809.2025,0.97198
1808.2381,0.97252
1807.2737,0.97292
1806.3093,0.97247
1805.3449,0.97178
1804.3805,0.97109
1803.4161,0.9702
1802.4517,0.96946
1801.4874,0.96926
1800.523,0.96946
1799.5586,0.96995
1798.5942,0.97035
1797.6298,0.9702
1796.6654,0.96966
1795.701,0.96941
1794.7366,0.96941
1793.7722,0.96902
1792.8078,0.96862
1791.8434,0.96897
1790.879,0.96976
1789.9146,0.96986
1788.9502,0.96882
1787.9858,0.96763
1787.0214,0.96724
1786.057,0.96714
1785.0927,0.96694
1784.1283,0.9665
1783.1639,0.96551
1782.1995,0.96437
1781.2351,0.96373
1780.2707,0.96338
1779.3063,0.96269
1778.3419,0.96155
1777.3775,0.96081
1776.4131,0.96076
1775.4487,0.96057
1774.4843,0.95928
1773.5199,0.95711
1772.5555,0.95523
1771.5911,0.95394
1770.6267,0.95281
1769.6624,0.95137
1768.698,0.9495
1767.7336,0.94747
1766.7692,0.94599
1765.8048,0.94446
1764.8404,0.94233
1763.876,0.94001
1762.9116,0.93778
1761.9472,0.93556
1760.9828,0.93339
1760.0184,0.93146
1759.054,0.92924
1758.0896,0.92662
1757.1252,0.92385
1756.1608,0.92138
1755.1965,0.9193
1754.2321,0.91733
1753.2677,0.915
1752.3033,0.91204
1751.3389,0.90883
1750.3745,0.90591
1749.4101,0.90265
1748.4457,0.89894
1747.4813,0.89548
1746.5169,0.89252
1745.5525,0.88941
1744.5881,0.88575
1743.6237,0.88155
1742.6593,0.87715
1741.6949,0.87255
1740.7305,0.86761
1739.7662,0.86287
1738.8018,0.85872
1737.8374,0.85481
1736.873,0.85101
1735.9086,0.84686
1734.9442,0.84261
1733.9798,0.83935
1733.0154,0.83683
1732.051,0.8347
1731.0866,0.83287
1730.1222,0.83114
1729.1578,0.82926
1728.1934,0.82749
1727.229,0.82625
1726.2647,0.82576
1725.3003,0.82511
1724.3359,0.82388
1723.3715,0.82274
1722.4071,0.822
1721.4427,0.82136
1720.4783,0.82081
1719.5139,0.81988
1718.5495,0.8181
1717.5851,0.81676
1716.6207,0.81671
1715.6563,0.8175
1714.6919,0.81844
1713.7275,0.81918
1712.7631,0.81943
1711.7987,0.81908
1710.8344,0.81839
1709.87,0.81795
1708.9056,0.81805
1707.9412,0.81815
1706.9768,0.818
1706.0124,0.81745
1705.048,0.81652
1704.0836,0.81538
1703.1192,0.81375
1702.1548,0.81088
1701.1904,0.80713
1700.226,0.80406
1699.2616,0.80223
1698.2972,0.80001
1697.3328,0.79625
1696.3684,0.79156
1695.4041,0.78785
1694.4397,0.78548
1693.4753,0.78281
1692.5109,0.7794
1691.5465,0.77604
1690.5821,0.77229
1689.6177,0.76774
1688.6533,0.7626
1687.6889,0.75721
1686.7245,0.75109
1685.7601,0.74343
1684.7957,0.73577
1683.8313,0.73013
1682.8669,0.72509
1681.9025,0.71837
1680.9381,0.70992
1679.9738,0.70093
1679.0094,0.69203
1678.045,0.68264
1677.0806,0.67202
1676.1162,0.66036
1675.1518,0.64909
1674.1874,0.63926
1673.223,0.62977
1672.2586,0.61959
1671.2942,0.60877
1670.3298,0.59755
1669.3654,0.58628
1668.401,0.57556
1667.4366,0.56493
1666.4722,0.55411
1665.5078,0.54319
1664.5434,0.53158
1663.5791,0.51942
1662.6147,0.50761
1661.6503,0.49694
1660.6859,0.48725
1659.7215,0.47801
1658.7571,0.46852
1657.7927,0.45928
1656.8283,0.45127
1655.8639,0.44475
1654.8995,0.43867
1653.9351,0.43274
1652.9707,0.42835
1652.0063,0.42676
1651.0419,0.42627
1650.0775,0.42479
1649.1131,0.42251
1648.1488,0.42014
1647.1844,0.41802
1646.22,0.41614
1645.2556,0.41525
1644.2912,0.4151
1643.3268,0.41436
1642.3624,0.41268
1641.398,0.41041
1640.4336,0.40749
1639.4692,0.40403
1638.5048,0.40033
1637.5404,0.39627
1636.576,0.39153
1635.6116,0.38649
1634.6472,0.38194
1633.6828,0.37745
1632.7185,0.37201
1631.7541,0.36583
1630.7897,0.35975
1629.8253,0.35422
1628.8609,0.34869
1627.8965,0.34285
1626.9321,0.33707
1625.9677,0.33203
1625.0033,0.32773
1624.0389,0.32413
1623.0745,0.32185
1622.1101,0.32141
1621.1457,0.32269
1620.1813,0.32585
1619.2169,0.33094
1618.2526,0.33791
1617.2882,0.3471
1616.3238,0.35916
1615.3594,0.37354
1614.395,0.38926
1613.4306,0.40611
1612.4662,0.4235
1611.5018,0.4409
1610.5374,0.4578
1609.573,0.47411
1608.6086,0.48977
1607.6442,0.50504
1606.6798,0.51972
1605.7154,0.53321
1604.7511,0.54532
1603.7867,0.55638
1602.8223,0.56627
1601.8579,0.57497
1600.8935,0.58282
1599.9291,0.58984
1598.9647,0.59597
1598.0003,0.6013
1597.0359,0.6058
1596.0715,0.6098
1595.1071,0.61331
1594.1427,0.61573
1593.1783,0.61697
1592.2139,0.61727
1591.2495,0.61692
1590.2851,0.61623
1589.3208,0.61499
1588.3564,0.61297
1587.392,0.61025
1586.4276,0.60679
1585.4632,0.60254
1584.4988,0.5976
1583.5344,0.59226
1582.57,0.58638
1581.6056,0.57986
1580.6412,0.57294
1579.6768,0.56582
1578.7124,0.55797
1577.748,0.54858
1576.7836,0.53761
1575.8192,0.52728
1574.8548,0.51878
1573.8905,0.51018
1572.9261,0.50025
1571.9617,0.48952
1570.9973,0.47836
1570.0329,0.46714
1569.0685,0.45681
1568.1041,0.44693
1567.1397,0.43685
1566.1753,0.42711
1565.2109,0.41792
1564.2465,0.40828
1563.2821,0.3983
1562.3177,0.38891
1561.3533,0.37992
1560.3889,0.37073
1559.4245,0.36223
1558.4602,0.3561
1557.4958,0.35274
1556.5314,0.35037
1555.567,0.34755
1554.6026,0.34453
1553.6382,0.34241
1552.6738,0.34162
1551.7094,0.34177
1550.745,0.34231
1549.7806,0.34295
1548.8162,0.34389
1547.8518,0.34533
1546.8874,0.34715
1545.923,0.34967
1544.9586,0.35294
1543.9942,0.35635
1543.0298,0.35926
1542.0655,0.36208
1541.1011,0.36514
1540.1367,0.3685
1539.1723,0.37305
1538.2079,0.37903
1537.2435,0.38516
1536.2791,0.39049
1535.3147,0.39514
1534.3503,0.39929
1533.3859,0.40403
1532.4215,0.40976
1531.4571,0.41535
1530.4927,0.42019
1529.5283,0.42494
1528.5639,0.43008
1527.5995,0.43531
1526.6352,0.4403
1525.6708,0.44525
1524.7064,0.45024
1523.742,0.45483
1522.7776,0.45898
1521.8132,0.46323
1520.8488,0.46818
1519.8844,0.47356
1518.92,0.47831
1517.9556,0.48256
1516.9912,0.48735
1516.0268,0.49298
1515.0624,0.49916
1514.098,0.50563
1513.1336,0.51186
1512.1692,0.51828
1511.2049,0.5255
1510.2405,0.53281
1509.2761,0.53929
1508.3117,0.54497
1507.3473,0.5507
1506.3829,0.55722
1505.4185,0.56479
1504.4541,0.57284
1503.4897,0.58015
1502.5253,0.58638
1501.5609,0.59241
1500.5965,0.59864
1499.6321,0.60437
1498.6677,0.60956
1497.7034,0.6148
1496.739,0.62003
1495.7746,0.62562
1494.8102,0.63165
1493.8458,0.63777
1492.8814,0.64346
1491.917,0.6483
1490.9526,0.6523
1489.9882,0.65631
1489.0238,0.66051
1488.0594,0.66436
1487.095,0.66767
1486.1306,0.67108
1485.1662,0.67449
1484.2018,0.67755
1483.2374,0.68008
1482.2731,0.682
1481.3087,0.68373
1480.3443,0.68517
1479.3799,0.68576
1478.4155,0.68576
1477.4511,0.68556
1476.4867,0.68502
1475.5223,0.68393
1474.5579,0.6819
1473.5935,0.67924
1472.6291,0.67701
1471.6647,0.67543
1470.7003,0.67375
1469.7359,0.67118
1468.7715,0.66807
1467.8072,0.6652
1466.8428,0.66243
1465.8784,0.65927
1464.914,0.65596
1463.9496,0.65299
1462.9852,0.64978
1462.0208,0.64583
1461.0564,0.64128
1460.092,0.6359
1459.1276,0.62952
1458.1632,0.62305
1457.1988,0.61756
1456.2344,0.61356
1455.27,0.61099
1454.3056,0.60901
1453.3412,0.60728
1452.3769,0.60546
1451.4125,0.60343
1450.4481,0.60155
1449.4837,0.59987
1448.5193,0.59854
1447.5549,0.59745
1446.5905,0.59621
1445.6261,0.59473
1444.6617,0.59325
1443.6973,0.59211
1442.7329,0.59127
1441.7685,0.59043
1440.8041,0.58885
1439.8397,0.58633
1438.8753,0.58322
1437.9109,0.57926
1436.9465,0.57457
1435.9822,0.56997
1435.0178,0.56582
1434.0534,0.56172
1433.089,0.55782
1432.1246,0.5548
1431.1602,0.55253
1430.1958,0.55105
1429.2314,0.5505
1428.267,0.55065
1427.3026,0.55129
1426.3382,0.55213
1425.3738,0.55258
1424.4094,0.55263
1423.445,0.55307
1422.4806,0.55396
1421.5162,0.55436
1420.5519,0.55347
1419.5875,0.55233
1418.6231,0.55223
1417.6587,0.55268
1416.6943,0.55327
1415.7299,0.55406
1414.7655,0.55466
1413.8011,0.5553
1412.8367,0.55658
1411.8723,0.55851
1410.9079,0.56063
1409.9435,0.56301
1408.9791,0.56572
1408.0147,0.56834
1407.0503,0.57086
1406.0859,0.57319
1405.1216,0.57531
1404.1572,0.57729
1403.1928,0.57917
1402.2284,0.5808
1401.264,0.58198
1400.2996,0.58248
1399.3352,0.58272
1398.3708,0.58332
1397.4064,0.58421
1396.442,0.58485
1395.4776,0.58475
1394.5132,0.58386
1393.5488,0.58243
1392.5844,0.58001
1391.62,0.57635
1390.6556,0.57151
1389.6913,0.56513
1388.7269,0.55693
1387.7625,0.547
1386.7981,0.53598
1385.8337,0.52352
1384.8693,0.5089
1383.9049,0.49239
1382.9405,0.47485
1381.9761,0.4573
1381.0117,0.44119
1380.0473,0.42731
1379.0829,0.41604
1378.1185,0.40764
1377.1541,0.40201
1376.1898,0.3983
1375.2253,0.39622
1374.261,0.39618
1373.2966,0.3986
1372.3322,0.40304
1371.3678,0.40848
1370.4034,0.41485
1369.439,0.42242
1368.4746,0.43096
1367.5102,0.43981
1366.5458,0.44866
1365.5814,0.4574
1364.617,0.46595
1363.6526,0.4742
1362.6882,0.48265
1361.7238,0.49209
1360.7595,0.50242
1359.7951,0.51305
1358.8307,0.52372
1357.8663,0.53385
1356.9019,0.54319
1355.9375,0.55209
1354.9731,0.56088
1354.0087,0.56894
1353.0443,0.57585
1352.0799,0.58198
1351.1155,0.58727
1350.1511,0.59182
1349.1867,0.59602
1348.2223,0.59967
1347.2579,0.60254
1346.2936,0.60486
1345.3292,0.60699
1344.3648,0.60896
1343.4004,0.61059
1342.436,0.61163
1341.4716,0.61218
1340.5072,0.61267
1339.5428,0.61272
1338.5784,0.61163
1337.614,0.60956
1336.6496,0.60694
1335.6852,0.60333
1334.7208,0.59809
1333.7564,0.59117
1332.792,0.58287
1331.8276,0.57393
1330.8633,0.56503
1329.8989,0.55643
1328.9345,0.54853
1327.9701,0.54156
1327.0057,0.53504
1326.0413,0.52866
1325.0769,0.52288
1324.1125,0.51779
1323.1481,0.5131
1322.1837,0.50899
1321.2193,0.50553
1320.2549,0.50222
1319.2905,0.49876
1318.3261,0.49535
1317.3617,0.4918
1316.3973,0.48794
1315.4329,0.48404
1314.4686,0.48023
1313.5042,0.47658
1312.5398,0.47317
1311.5754,0.4702
1310.611,0.46778
1309.6466,0.46595
1308.6822,0.46491
1307.7178,0.46462
1306.7534,0.46467
1305.789,0.46531
1304.8246,0.46679
1303.8602,0.46892
1302.8958,0.47129
1301.9314,0.47411
1300.967,0.47756
1300.0026,0.48152
1299.0383,0.48616
1298.0739,0.49185
1297.1095,0.49837
1296.1451,0.50544
1295.1807,0.513
1294.2163,0.521
1293.2519,0.52891
1292.2875,0.53627
1291.3231,0.54309
1290.3587,0.54991
1289.3943,0.55668
1288.4299,0.56286
1287.4655,0.56859
1286.5011,0.57417
1285.5367,0.57926
1284.5723,0.58361
1283.608,0.58781
1282.6436,0.59256
1281.6792,0.5972
1280.7148,0.60081
1279.7504,0.60368
1278.786,0.6062
1277.8216,0.60847
1276.8572,0.61055
1275.8928,0.61232
1274.9284,0.61321
1273.964,0.61341
1272.9996,0.61321
1272.0352,0.61247
1271.0708,0.61069
1270.1064,0.60738
1269.142,0.60274
1268.1777,0.59735
1267.2133,0.59162
1266.2489,0.58564
1265.2845,0.57936
1264.3201,0.57333
1263.3557,0.56859
1262.3913,0.56592
1261.4269,0.56533
1260.4625,0.56577
1259.4981,0.56627
1258.5337,0.56686
1257.5693,0.56805
1256.6049,0.56958
1255.6405,0.57126
1254.6762,0.57343
1253.7117,0.57566
1252.7474,0.57734
1251.783,0.57833
1250.8186,0.57902
1249.8542,0.58006
1248.8898,0.58119
1247.9254,0.58178
1246.961,0.58178
1245.9966,0.58198
1245.0322,0.58263
1244.0678,0.58322
1243.1034,0.58351
1242.139,0.58351
1241.1746,0.58327
1240.2102,0.58267
1239.2459,0.58174
1238.2815,0.5808
1237.3171,0.5801
1236.3527,0.57971
1235.3883,0.57966
1234.4239,0.5804
1233.4595,0.58159
1232.4951,0.58277
1231.5307,0.58401
1230.5663,0.58539
1229.6019,0.58712
1228.6375,0.58944
1227.6731,0.59216
1226.7087,0.59478
1225.7443,0.5972
1224.7799,0.59948
1223.8156,0.602
1222.8512,0.60541
1221.8868,0.60921
1220.9224,0.61242
1219.958,0.61529
1218.9936,0.61821
1218.0292,0.62102
1217.0648,0.62354
1216.1004,0.62586
1215.136,0.62764
1214.1716,0.62853
1213.2072,0.62834
1212.2428,0.62759
1211.2784,0.62626
1210.314,0.62389
1209.3497,0.62107
1208.3853,0.61801
1207.4209,0.61425
1206.4565,0.6101
1205.4921,0.6063
1204.5277,0.60303
1203.5633,0.60022
1202.5989,0.59809
1201.6345,0.59696
1200.6701,0.5971
1199.7057,0.59878
1198.7413,0.6017
1197.7769,0.6062
1196.8125,0.61287
1195.8481,0.62107
1194.8837,0.62952
1193.9193,0.63812
1192.955,0.64647
1191.9906,0.65388
1191.0262,0.65991
1190.0618,0.66481
1189.0974,0.66906
1188.133,0.67271
1187.1686,0.67548
1186.2042,0.67765
1185.2398,0.67978
1184.2754,0.68151
1183.311,0.6823
1182.3466,0.6822
1181.3822,0.68171
1180.4178,0.68072
1179.4534,0.67963
1178.489,0.67869
1177.5247,0.67746
1176.5603,0.67533
1175.5959,0.67271
1174.6315,0.66994
1173.6671,0.66653
1172.7027,0.66273
1171.7383,0.65888
1170.7739,0.65433
1169.8095,0.64835
1168.8451,0.64128
1167.8807,0.63343
1166.9163,0.62458
1165.9519,0.61455
1164.9875,0.60402
1164.0231,0.59374
1163.0587,0.58302
1162.0944,0.57096
1161.13,0.55816
1160.1656,0.54586
1159.2012,0.53415
1158.2368,0.52263
1157.2724,0.51142
1156.308,0.50138
1155.3436,0.49358
1154.3792,0.48834
1153.4148,0.48547
1152.4504,0.48483
1151.486,0.48636
1150.5216,0.48972
1149.5572,0.49437
1148.5928,0.50015
1147.6284,0.50697
1146.6641,0.51458
1145.6997,0.52248
1144.7353,0.53024
1143.7709,0.53805
1142.8065,0.54576
1141.8421,0.55228
1140.8777,0.55678
1139.9133,0.5593
1138.9489,0.56063
1137.9845,0.56093
1137.0201,0.56019
1136.0557,0.55925
1135.0913,0.55792
1134.1269,0.55515
1133.1626,0.55095
1132.1981,0.54566
1131.2338,0.53884
1130.2694,0.53
1129.305,0.51952
1128.3406,0.50756
1127.3762,0.49422
1126.4118,0.48013
1125.4474,0.466
1124.483,0.45281
1123.5186,0.44124
1122.5542,0.43062
1121.5898,0.42083
1120.6254,0.41273
1119.661,0.40586
1118.6966,0.39914
1117.7323,0.39232
1116.7678,0.3859
1115.8035,0.38031
1114.8391,0.37537
1113.8747,0.37053
1112.9103,0.36628
1111.9459,0.36307
1110.9815,0.36119
1110.0171,0.36124
1109.0527,0.36302
1108.0883,0.36554
1107.1239,0.3686
1106.1595,0.3725
1105.1951,0.3774
1104.2307,0.38308
1103.2663,0.38881
1102.302,0.39459
1101.3376,0.40097
1100.3732,0.40754
1099.4088,0.41446
1098.4444,0.42172
1097.48,0.42825
1096.5156,0.43245
1095.5512,0.43408
1094.5868,0.43378
1093.6224,0.43215
1092.658,0.42953
1091.6936,0.42563
1090.7292,0.42004
1089.7648,0.41219
1088.8004,0.4025
1087.836,0.39222
1086.8717,0.38199
1085.9073,0.37181
1084.9429,0.36173
1083.9785,0.35086
1083.0141,0.33851
1082.0497,0.32511
1081.0853,0.31073
1080.1209,0.29566
1079.1565,0.28143
1078.1921,0.26937
1077.2277,0.2587
1076.2633,0.24832
1075.2989,0.23834
1074.3345,0.22944
1073.3701,0.22178
1072.4057,0.21541
1071.4414,0.21022
1070.477,0.20508
1069.5126,0.19955
1068.5482,0.19455
1067.5838,0.19045
1066.6194,0.18655
1065.655,0.18304
1064.6906,0.18027
1063.7262,0.17775
1062.7618,0.17597
1061.7974,0.17563
1060.833,0.17642
1059.8686,0.17825
1058.9042,0.182
1057.9398,0.18714
1056.9754,0.19268
1056.0111,0.19866
1055.0467,0.20552
1054.0823,0.21274
1053.1179,0.21956
1052.1535,0.22588
1051.1891,0.23117
1050.2247,0.23517
1049.2603,0.23868
1048.2959,0.24145
1047.3315,0.24209
1046.3671,0.24051
1045.4027,0.23784
1044.4383,0.23458
1043.4739,0.23033
1042.5095,0.22455
1041.5451,0.21729
1040.5808,0.20844
1039.6164,0.19747
1038.652,0.18472
1037.6876,0.17133
1036.7232,0.157
1035.7588,0.14183
1034.7944,0.12829
1033.83,0.11751
1032.8656,0.10812
1031.9012,0.099624
1030.9368,0.0932
1029.9724,0.088654
1029.008,0.084849
1028.0436,0.081488
1027.0792,0.078771
1026.1148,0.076942
1025.1505,0.076596
1024.1861,0.078178
1023.2217,0.082032
1022.2573,0.087715
1021.2929,0.094287
1020.3285,0.10096
1019.3641,0.10709
1018.3997,0.11178
1017.4353,0.11445
1016.4709,0.11573
1015.5065,0.11618
1014.5421,0.11524
1013.5777,0.11316
1012.6133,0.11208
1011.649,0.11331
1010.6845,0.11657
1009.7202,0.12112
1008.7558,0.12666
1007.7914,0.13328
1006.827,0.14089
1005.8626,0.14944
1004.8982,0.15907
1003.9338,0.16965
1002.9694,0.18092
1002.005,0.19218
1001.0406,0.2033
1000.0762,0.21442
999.11183,0.22495
998.14743,0.23513
997.18304,0.2456
996.21865,0.25568
995.25425,0.26492
994.28986,0.27362
993.32547,0.28197
992.36107,0.29013
991.39668,0.29907
990.43229,0.30955
989.46789,0.32101
988.5035,0.33248
987.5391,0.34379
986.57471,0.35536
985.61032,0.36638
984.64592,0.37586
983.68153,0.38461
982.71714,0.39306
981.75274,0.40028
980.78835,0.40616
979.82396,0.4114
978.85956,0.41604
977.89517,0.4196
976.93077,0.42197
975.96638,0.4241
975.00199,0.42671
974.03759,0.42958
973.0732,0.4323
972.10881,0.43517
971.14441,0.43853
970.18002,0.44282
969.21563,0.44851
968.25123,0.45498
967.28684,0.46131
966.32244,0.46813
965.35805,0.47554
964.39366,0.48206
963.42926,0.48671
962.46487,0.48957
961.50048,0.49071
960.53608,0.48913
959.57169,0.48315
958.6073,0.47228
957.6429,0.45809
956.67851,0.44189
955.71411,0.42464
954.74972,0.40843
953.78533,0.39583
952.82093,0.38792
951.85654,0.38451
950.89215,0.38422
949.92775,0.3859
948.96336,0.3896
947.99896,0.39553
947.03457,0.40319
946.07018,0.41149
945.10578,0.42004
944.14139,0.42914
943.177,0.43813
942.2126,0.44683
941.24821,0.45617
940.28382,0.46615
939.31942,0.47648
938.35503,0.487
937.39063,0.49718
936.42624,0.50628
935.46185,0.51423
934.49745,0.52164
933.53306,0.52881
932.56867,0.53494
931.60427,0.53934
930.63988,0.5423
929.67549,0.54452
928.71109,0.54591
927.7467,0.54625
926.7823,0.54586
925.81791,0.54532
924.85352,0.54517
923.88912,0.54571
922.92473,0.54709
921.96034,0.54937
920.99594,0.55204
920.03155,0.55466
919.06716,0.55708
918.10276,0.559
917.13837,0.56029
916.17397,0.56167
915.20958,0.5638
914.24519,0.56563
913.28079,0.56563
912.3164,0.56345
911.35201,0.55989
910.38761,0.55668
909.42322,0.55441
908.45882,0.55189
907.49443,0.54912
906.53004,0.5466
905.56564,0.54418
904.60125,0.54186
903.63686,0.54008
902.67246,0.53874
901.70807,0.53761
900.74368,0.53578
899.77928,0.53336
898.81489,0.53168
897.85049,0.53093
896.8861,0.53034
895.92171,0.5294
894.95731,0.52856
893.99292,0.52886
893.02853,0.53
892.06413,0.53128
891.09974,0.53311
890.13535,0.53578
889.17095,0.53869
888.20656,0.5422
887.24216,0.5465
886.27777,0.55144
885.31338,0.55713
884.34898,0.56276
883.38459,0.56775
882.4202,0.57235
881.4558,0.57699
880.49141,0.58178
879.52702,0.58648
878.56262,0.59122
877.59823,0.59547
876.63383,0.59834
875.66944,0.60037
874.70505,0.60308
873.74065,0.60639
872.77626,0.60916
871.81187,0.61084
870.84747,0.61223
869.88308,0.6141
868.91868,0.61633
867.95429,0.61835
866.9899,0.62023
866.0255,0.62196
865.06111,0.62315
864.09672,0.62428
863.13232,0.62636
862.16793,0.62839
861.20354,0.62937
860.23914,0.63011
859.27475,0.63115
858.31035,0.63234
857.34596,0.63293
856.38157,0.63293
855.41717,0.63318
854.45278,0.63382
853.48839,0.63501
852.52399,0.63669
851.5596,0.63743
850.59521,0.63688
849.63081,0.63654
848.66642,0.63664
847.70202,0.63624
846.73763,0.6353
845.77324,0.63412
844.80884,0.63293
843.84445,0.63229
842.88006,0.63278
841.91566,0.63347
840.95127,0.63308
839.98688,0.63179
839.02248,0.63061
838.05809,0.62937
837.09369,0.62769
836.1293,0.62621
835.16491,0.62532
834.20051,0.62453
833.23612,0.62359
832.27173,0.62221
831.30733,0.62003
830.34294,0.61825
829.37855,0.61756
828.41415,0.61697
827.44976,0.61564
826.48536,0.61396
825.52097,0.61242
824.55658,0.61109
823.59218,0.61
822.62779,0.60862
821.6634,0.60585
820.699,0.60205
819.73461,0.59809
818.77021,0.59458
817.80582,0.59152
816.84143,0.58954
815.87703,0.589
814.91264,0.58959
813.94825,0.59024
812.98385,0.59093
812.01946,0.5931
811.05507,0.59592
810.09067,0.59775
809.12628,0.59859
808.16188,0.59809
807.19749,0.59661
806.2331,0.59508
805.2687,0.59458
804.30431,0.59533
803.33992,0.59577
802.37552,0.59513
801.41113,0.59379
800.44674,0.59266
799.48234,0.59271
798.51795,0.59315
797.55355,0.59206
796.58916,0.58999
795.62477,0.58801
794.66037,0.58673
793.69598,0.58589
792.73159,0.58445
791.76719,0.58218
790.8028,0.57976
789.83841,0.57778
788.87401,0.5765
787.90962,0.57516
786.94522,0.57383
785.98083,0.57279
785.01644,0.57136
784.05204,0.56923
783.08765,0.56661
782.12326,0.56409
781.15886,0.56256
780.19447,0.56167
779.23007,0.56063
778.26568,0.5594
777.30129,0.55841
776.33689,0.55752
775.3725,0.5554
774.40811,0.55164
773.44371,0.54813
772.47932,0.54561
771.51493,0.5427
770.55053,0.53924
769.58614,0.53612
768.62174,0.53301
767.65735,0.52911
766.69296,0.52486
765.72856,0.5215
764.76417,0.51873
763.79978,0.51433
762.83538,0.5089
761.87099,0.50504
760.9066,0.50262
759.9422,0.49995
758.97781,0.49733
758.01341,0.4957
757.04902,0.49437
756.08463,0.49244
755.12023,0.49022
754.15584,0.48804
753.19145,0.48572
752.22705,0.4832
751.26266,0.48063
750.29827,0.47801
749.33387,0.47504
748.36948,0.47193
747.40508,0.46921
746.44069,0.46729
745.4763,0.46645
744.5119,0.46575
743.54751,0.46417
742.58312,0.4618
741.61872,0.45869
740.65433,0.45528
739.68993,0.4531
738.72554,0.45202
737.76115,0.45093
736.79675,0.44969
735.83236,0.44747
734.86797,0.44401
733.90357,0.4407
732.93918,0.43877
731.97479,0.43759
731.01039,0.43541
730.046,0.43166
729.0816,0.42839
728.11721,0.42711
727.15282,0.42563
726.18842,0.42207
725.22403,0.41812
724.25964,0.41505
723.29524,0.41327
722.33085,0.41263
721.36646,0.4108
720.40206,0.40724
719.43767,0.40408
718.47327,0.4022
717.50888,0.39988
716.54449,0.39618
715.58009,0.39237
714.6157,0.38936
713.65131,0.38659
712.68691,0.38382
711.72252,0.3811
710.75813,0.37898
709.79373,0.37666
708.82934,0.37339
707.86494,0.37033
706.90055,0.36741
705.93616,0.36361
704.97176,0.3598
704.00737,0.35758
703.04298,0.35595
702.07858,0.35348
701.11419,0.35091
700.14979,0.35007
699.1854,0.35071
698.22101,0.35096
697.25661,0.34972
696.29222,0.34789
695.32783,0.34577
694.36343,0.34315
693.39904,0.34058
692.43465,0.339
691.47025,0.33791
690.50586,0.33638
689.54146,0.3349
688.57707,0.3345
687.61268,0.33376
686.64828,0.33114
685.68389,0.32842
684.7195,0.32887
683.7551,0.33213
682.79071,0.33406
681.82632,0.33267
680.86192,0.33129
679.89753,0.33347
678.93313,0.33692
677.96874,0.33796
677.00435,0.33841
676.03995,0.34083
675.07556,0.34246
674.11117,0.34226
673.14677,0.34285
672.18238,0.34439
671.21799,0.34567
670.25359,0.34617
669.2892,0.34508
668.3248,0.34409
667.36041,0.34567
666.39602,0.34893
665.43162,0.35111
664.46723,0.35081
663.50284,0.34785
662.53844,0.34434
661.57405,0.34271
660.60966,0.34177
659.64526,0.34078
658.68087,0.34147
657.71647,0.34142
656.75208,0.33737
655.78769,0.33233
654.82329,0.3307
653.8589,0.33159
652.89451,0.33144
651.93011,0.32931
650.96572,0.3261
650.00132,0.32086
649.03693,0.31568
648.07254,0.31538
647.10814,0.31983
646.14375,0.32353
645.17936,0.3217
644.21496,0.31498
643.25057,0.30653
642.28618,0.29665
641.32178,0.28593
640.35739,0.27871
639.39299,0.27654
638.4286,0.27412
637.46421,0.26557
636.49981,0.25015
635.53542,0.23241
634.57103,0.21773
633.60663,0.20676
632.64224,0.20004
631.67785,0.19964
630.71345,0.19999
629.74906,0.19653
628.78466,0.19554
627.82027,0.20014
626.85588,0.20518
625.89148,0.2078
624.92709,0.20918
623.9627,0.20943
622.9983,0.20992
622.03391,0.21017
621.06952,0.20686
620.10512,0.20805
619.14073,0.21155
618.17633,0.19885
617.21194,0.18057
616.24755,0.17563
615.28315,0.17849
614.31876,0.18353
613.35437,0.18467
612.38997,0.17691
611.42558,0.17187
610.46118,0.17523
609.49679,0.17963
608.5324,0.18418
607.568,0.18828
606.60361,0.18437
605.63922,0.16772
604.67482,0.15151
603.71043,0.1571
602.74604,0.17385
601.78164,0.17444
600.81725,0.15942
599.85285,0.14143
598.88846,0.12567
597.92407,0.11751
596.95967,0.11895
595.99528,0.12745
595.03089,0.13936
594.06649,0.15112
593.1021,0.16065
592.13771,0.1606
591.17331,0.14524
590.20892,0.12562
589.24452,0.11396
588.28013,0.11069
587.31574,0.11998
586.35134,0.14351
585.38695,0.15833
584.42256,0.1437
583.45816,0.1187
582.49377,0.12201
581.52938,0.15428
580.56498,0.15631
579.60059,0.098488
578.63619,0.049022
577.6718,0.064934
576.70741,0.11376
575.74301,0.1487
574.77862,0.16317
573.81423,0.16189
572.84983,0.14583
571.88544,0.12586
570.92104,0.10887
569.95665,0.081587
568.99226,0.045414
568.02786,0.03647
567.06347,0.051344
566.09908,0.053321
565.13468,0.04917
564.17029,0.042844
563.2059,0.019421
562.2415,0
561.27711,0.017395
560.31271,0.066169
559.34832,0.11134
558.38393,0.12735
557.41953,0.11806
556.45514,0.096511
555.49075,0.054457
554.52635,0.014677
553.56196,0.031726
552.59757,0.089148
551.63317,0.11158
550.66878,0.067751
549.70438,0.025598
