Wavenumber,Transmission
cm^{-1},a.u.
3995.4829,0.9956
3994.5185,0.99434
3993.5541,0.99372
3992.5897,0.99418
3991.6253,0.99495
3990.6609,0.99506
3989.6966,0.99499
3988.7322,0.99491
3987.7678,0.99407
3986.8034,0.99296
3985.839,0.99304
3984.8746,0.99392
3983.9102,0.99453
3982.9458,0.99491
3981.9814,0.99522
3981.017,0.99548
3980.0526,0.99548
3979.0882,0.9951
3978.1238,0.99499
3977.1594,0.99518
3976.195,0.99522
3975.2306,0.99518
3974.2663,0.9948
3973.3019,0.99426
3972.3375,0.99399
3971.3731,0.99384
3970.4087,0.99384
3969.4443,0.99418
3968.4799,0.99422
3967.5155,0.99403
3966.5511,0.99453
3965.5867,0.99499
3964.6223,0.9946
3963.6579,0.99441
3962.6935,0.99514
3961.7291,0.99556
3960.7647,0.99472
3959.8004,0.99365
3958.836,0.99384
3957.8716,0.99453
3956.9072,0.99487
3955.9428,0.99537
3954.9784,0.99587
3954.014,0.99583
3953.0496,0.9964
3952.0852,0.99747
3951.1208,0.99721
3950.1564,0.99617
3949.192,0.99602
3948.2276,0.99633
3947.2632,0.99617
3946.2988,0.99587
3945.3344,0.99575
3944.3701,0.99552
3943.4057,0.99514
3942.4413,0.9946
3941.4769,0.99388
3940.5125,0.99388
3939.5481,0.99522
3938.5837,0.99636
3937.6193,0.99621
3936.6549,0.99548
3935.6905,0.99499
3934.7261,0.9943
3933.7617,0.99384
3932.7973,0.99418
3931.8329,0.9948
3930.8686,0.99495
3929.9041,0.99487
3928.9398,0.99487
3927.9754,0.99503
3927.011,0.99499
3926.0466,0.99483
3925.0822,0.99506
3924.1178,0.99579
3923.1534,0.99621
3922.189,0.99617
3921.2246,0.99621
3920.2602,0.99656
3919.2958,0.99682
3918.3314,0.99698
3917.367,0.99705
3916.4026,0.99717
3915.4383,0.99717
3914.4738,0.99698
3913.5095,0.99659
3912.5451,0.99591
3911.5807,0.99518
3910.6163,0.9948
3909.6519,0.99434
3908.6875,0.99388
3907.7231,0.99403
3906.7587,0.99464
3905.7943,0.99514
3904.8299,0.9951
3903.8655,0.9946
3902.9011,0.99445
3901.9367,0.99506
3900.9723,0.99579
3900.008,0.99629
3899.0436,0.99663
3898.0792,0.99698
3897.1148,0.99747
3896.1504,0.99793
3895.186,0.99812
3894.2216,0.99809
3893.2572,0.99805
3892.2928,0.99816
3891.3284,0.99828
3890.364,0.99828
3889.3996,0.99793
3888.4352,0.99732
3887.4708,0.99679
3886.5064,0.99648
3885.542,0.99614
3884.5777,0.9961
3883.6133,0.99682
3882.6489,0.99778
3881.6845,0.99797
3880.7201,0.99728
3879.7557,0.99606
3878.7913,0.99503
3877.8269,0.99518
3876.8625,0.99667
3875.8981,0.9982
3874.9337,0.99812
3873.9693,0.99671
3873.0049,0.99598
3872.0405,0.99675
3871.0761,0.99767
3870.1118,0.99793
3869.1474,0.99797
3868.183,0.99809
3867.2186,0.99847
3866.2542,0.99847
3865.2898,0.99801
3864.3254,0.9974
3863.361,0.99682
3862.3966,0.99648
3861.4322,0.99625
3860.4678,0.9964
3859.5034,0.99686
3858.539,0.99694
3857.5746,0.99675
3856.6102,0.99621
3855.6458,0.99552
3854.6815,0.99556
3853.7171,0.9961
3852.7527,0.99636
3851.7883,0.99675
3850.8239,0.99751
3849.8595,0.99801
3848.8951,0.99862
3847.9307,0.99973
3846.9663,1
3846.0019,0.99851
3845.0375,0.9969
3844.0731,0.9969
3843.1087,0.99812
3842.1443,0.99927
3841.1799,0.99939
3840.2155,0.99843
3839.2512,0.99751
3838.2868,0.9979
3837.3224,0.99874
3836.358,0.99855
3835.3936,0.99751
3834.4292,0.99675
3833.4648,0.99702
3832.5004,0.9977
3831.536,0.99774
3830.5716,0.99686
3829.6072,0.99598
3828.6428,0.99648
3827.6784,0.99763
3826.714,0.9974
3825.7496,0.99644
3824.7852,0.99648
3823.8209,0.99682
3822.8565,0.99659
3821.8921,0.99629
3820.9277,0.99702
3819.9633,0.99839
3818.9989,0.99889
3818.0345,0.99862
3817.0701,0.99858
3816.1057,0.99847
3815.1413,0.99816
3814.1769,0.9982
3813.2125,0.99874
3812.2481,0.99904
3811.2837,0.99847
3810.3193,0.99778
3809.3549,0.9977
3808.3906,0.99793
3807.4262,0.99824
3806.4618,0.99847
3805.4974,0.99866
3804.533,0.99874
3803.5686,0.99828
3802.6042,0.99774
3801.6398,0.99759
3800.6754,0.99724
3799.711,0.99606
3798.7466,0.99514
3797.7822,0.99541
3796.8178,0.99659
3795.8534,0.99786
3794.889,0.99878
3793.9246,0.99912
3792.9603,0.99916
3791.9959,0.99927
3791.0315,0.99904
3790.0671,0.99812
3789.1027,0.99767
3788.1383,0.99801
3787.1739,0.9979
3786.2095,0.99717
3785.2451,0.99713
3784.2807,0.9977
3783.3163,0.99786
3782.3519,0.99721
3781.3875,0.99644
3780.4231,0.99594
3779.4587,0.99587
3778.4943,0.99633
3777.53,0.99675
3776.5656,0.99667
3775.6012,0.99652
3774.6368,0.99663
3773.6724,0.99702
3772.708,0.99778
3771.7436,0.99839
3770.7792,0.9979
3769.8148,0.99659
3768.8504,0.99552
3767.886,0.9951
3766.9216,0.99537
3765.9572,0.99614
3764.9928,0.99663
3764.0284,0.99648
3763.064,0.9964
3762.0997,0.99702
3761.1353,0.99774
3760.1709,0.99774
3759.2065,0.99705
3758.2421,0.9964
3757.2777,0.99636
3756.3133,0.99659
3755.3489,0.99614
3754.3845,0.9951
3753.4201,0.9946
3752.4557,0.99476
3751.4913,0.9951
3750.5269,0.99564
3749.5625,0.99587
3748.5981,0.99594
3747.6337,0.99656
3746.6694,0.9969
3745.705,0.99617
3744.7406,0.99525
3743.7762,0.99537
3742.8118,0.99652
3741.8474,0.99755
3740.883,0.99801
3739.9186,0.9982
3738.9542,0.9979
3737.9898,0.99705
3737.0254,0.99648
3736.061,0.99594
3735.0966,0.99522
3734.1322,0.99506
3733.1678,0.99537
3732.2034,0.99564
3731.2391,0.9956
3730.2747,0.9951
3729.3103,0.99495
3728.3459,0.99571
3727.3815,0.99675
3726.4171,0.99778
3725.4527,0.99866
3724.4883,0.99893
3723.5239,0.9982
3722.5595,0.9969
3721.5951,0.99568
3720.6307,0.9951
3719.6663,0.99571
3718.7019,0.99686
3717.7375,0.99682
3716.7731,0.99571
3715.8088,0.99472
3714.8444,0.99418
3713.88,0.99441
3712.9156,0.99575
3711.9512,0.99702
3710.9868,0.99633
3710.0224,0.99453
3709.058,0.9938
3708.0936,0.99411
3707.1292,0.99403
3706.1648,0.99338
3705.2004,0.99319
3704.236,0.99415
3703.2716,0.99556
3702.3072,0.99633
3701.3429,0.99606
3700.3785,0.99583
3699.4141,0.99568
3698.4497,0.9946
3697.4853,0.99342
3696.5209,0.99334
3695.5565,0.99376
3694.5921,0.99369
3693.6277,0.99346
3692.6633,0.99376
3691.6989,0.99464
3690.7345,0.99525
3689.7701,0.99453
3688.8057,0.99288
3687.8413,0.9925
3686.8769,0.99384
3685.9126,0.99468
3684.9482,0.99418
3683.9838,0.99376
3683.0194,0.99388
3682.055,0.99338
3681.0906,0.99216
3680.1262,0.99124
3679.1618,0.99108
3678.1974,0.99089
3677.233,0.99013
3676.2686,0.98944
3675.3042,0.98944
3674.3398,0.99039
3673.3754,0.99093
3672.4111,0.98974
3671.4466,0.98825
3670.4823,0.98829
3669.5179,0.98879
3668.5535,0.98883
3667.5891,0.98917
3666.6247,0.98944
3665.6603,0.98944
3664.6959,0.98925
3663.7315,0.98833
3662.7671,0.98691
3661.8027,0.9858
3660.8383,0.98508
3659.8739,0.98408
3658.9095,0.98282
3657.9451,0.98198
3656.9808,0.98205
3656.0163,0.98289
3655.052,0.98335
3654.0876,0.98266
3653.1232,0.98087
3652.1588,0.97872
3651.1944,0.97765
3650.23,0.97769
3649.2656,0.97777
3648.3012,0.97723
3647.3368,0.97658
3646.3724,0.97616
3645.408,0.97516
3644.4436,0.97329
3643.4792,0.97172
3642.5148,0.97107
3641.5505,0.97103
3640.5861,0.97111
3639.6217,0.97099
3638.6573,0.97004
3637.6929,0.96851
3636.7285,0.96717
3635.7641,0.96632
3634.7997,0.96583
3633.8353,0.9656
3632.8709,0.96522
3631.9065,0.96411
3630.9421,0.96238
3629.9777,0.96101
3629.0133,0.96055
3628.0489,0.96009
3627.0845,0.95905
3626.1202,0.95825
3625.1558,0.95775
3624.1914,0.95703
3623.227,0.95618
3622.2626,0.95515
3621.2982,0.95335
3620.3338,0.95136
3619.3694,0.95014
3618.405,0.94956
3617.4406,0.94937
3616.4762,0.94922
3615.5118,0.94868
3614.5474,0.94765
3613.583,0.94681
3612.6186,0.94616
3611.6543,0.94497
3610.6899,0.94329
3609.7255,0.94218
3608.7611,0.94172
3607.7967,0.94095
3606.8323,0.93965
3605.8679,0.93805
3604.9035,0.93644
3603.9391,0.93583
3602.9747,0.93556
3602.0103,0.9338
3601.0459,0.93139
3600.0815,0.93051
3599.1171,0.93074
3598.1527,0.93028
3597.1883,0.92921
3596.224,0.9284
3595.2596,0.9279
3594.2952,0.92718
3593.3308,0.92526
3592.3664,0.92251
3591.402,0.92079
3590.4376,0.9206
3589.4732,0.9206
3588.5088,0.91952
3587.5444,0.91746
3586.58,0.91585
3585.6156,0.91493
3584.6512,0.91348
3583.6868,0.91214
3582.7224,0.91202
3581.758,0.9121
3580.7937,0.91114
3579.8292,0.90946
3578.8649,0.90808
3577.9005,0.90735
3576.9361,0.90647
3575.9717,0.90475
3575.0073,0.90292
3574.0429,0.90192
3573.0785,0.90096
3572.1141,0.89997
3571.1497,0.89951
3570.1853,0.89955
3569.2209,0.89928
3568.2565,0.89829
3567.2921,0.89641
3566.3277,0.89408
3565.3634,0.89216
3564.399,0.89086
3563.4346,0.88979
3562.4702,0.88914
3561.5058,0.88872
3560.5414,0.88765
3559.577,0.88581
3558.6126,0.88439
3557.6482,0.88355
3556.6838,0.88195
3555.7194,0.87976
3554.755,0.87827
3553.7906,0.87758
3552.8262,0.87716
3551.8618,0.87682
3550.8974,0.87586
3549.9331,0.87376
3548.9687,0.87112
3548.0043,0.86962
3547.0399,0.86916
3546.0755,0.86859
3545.1111,0.86805
3544.1467,0.86756
3543.1823,0.86645
3542.2179,0.8648
3541.2535,0.86277
3540.2891,0.86109
3539.3247,0.86013
3538.3603,0.85921
3537.3959,0.85784
3536.4315,0.8565
3535.4671,0.85566
3534.5028,0.85539
3533.5384,0.85493
3532.574,0.85374
3531.6096,0.85244
3530.6452,0.85164
3529.6808,0.85103
3528.7164,0.85034
3527.752,0.84911
3526.7876,0.84743
3525.8232,0.8459
3524.8588,0.84471
3523.8944,0.84333
3522.93,0.84188
3521.9656,0.84108
3521.0012,0.84096
3520.0368,0.84062
3519.0725,0.83916
3518.1081,0.83733
3517.1437,0.83557
3516.1793,0.83354
3515.2149,0.83162
3514.2505,0.83071
3513.2861,0.83051
3512.3217,0.82975
3511.3573,0.82784
3510.3929,0.82577
3509.4285,0.8242
3508.4641,0.82267
3507.4997,0.82198
3506.5353,0.82233
3505.5709,0.82148
3504.6065,0.81896
3503.6422,0.81685
3502.6778,0.81582
3501.7134,0.81502
3500.749,0.81421
3499.7846,0.81387
3498.8202,0.81341
3497.8558,0.81188
3496.8914,0.80962
3495.927,0.80744
3494.9626,0.80579
3493.9982,0.80484
3493.0338,0.80388
3492.0694,0.80246
3491.105,0.80143
3490.1406,0.8012
3489.1762,0.80132
3488.2119,0.80093
3487.2475,0.79975
3486.2831,0.79814
3485.3187,0.7963
3484.3543,0.79481
3483.3899,0.7942
3482.4255,0.79393
3481.4611,0.79313
3480.4967,0.79179
3479.5323,0.79018
3478.5679,0.78846
3477.6035,0.78704
3476.6391,0.78609
3475.6747,0.7854
3474.7103,0.78417
3473.7459,0.78241
3472.7816,0.781
3471.8172,0.78012
3470.8528,0.77947
3469.8884,0.77882
3468.924,0.77748
3467.9596,0.77529
3466.9952,0.7735
3466.0308,0.77242
3465.0664,0.77143
3464.102,0.77043
3463.1376,0.76902
3462.1732,0.76734
3461.2088,0.76623
3460.2444,0.76573
3459.28,0.76512
3458.3157,0.76412
3457.3513,0.7632
3456.3869,0.76274
3455.4225,0.76263
3454.4581,0.76217
3453.4937,0.76064
3452.5293,0.75865
3451.5649,0.75723
3450.6005,0.75643
3449.6361,0.75578
3448.6717,0.75463
3447.7073,0.75302
3446.7429,0.75138
3445.7785,0.74996
3444.8141,0.74881
3443.8497,0.74774
3442.8854,0.74698
3441.921,0.74659
3440.9566,0.74625
3439.9922,0.74583
3439.0278,0.74514
3438.0634,0.74361
3437.099,0.7415
3436.1346,0.73974
3435.1702,0.73841
3434.2058,0.7373
3433.2414,0.73657
3432.277,0.73645
3431.3126,0.73603
3430.3482,0.73446
3429.3838,0.73282
3428.4194,0.73213
3427.4551,0.73163
3426.4907,0.73087
3425.5263,0.72995
3424.5619,0.72914
3423.5975,0.72853
3422.6331,0.72746
3421.6687,0.72612
3420.7043,0.72555
3419.7399,0.72559
3418.7755,0.72528
3417.8111,0.72432
3416.8467,0.72306
3415.8823,0.72218
3414.9179,0.72191
3413.9536,0.72157
3412.9891,0.72061
3412.0248,0.71908
3411.0604,0.71755
3410.096,0.71621
3409.1316,0.71476
3408.1672,0.71345
3407.2028,0.71296
3406.2384,0.71303
3405.274,0.71254
3404.3096,0.71112
3403.3452,0.70963
3402.3808,0.70867
3401.4164,0.70806
3400.452,0.70718
3399.4876,0.70592
3398.5233,0.70519
3397.5588,0.70546
3396.5945,0.70584
3395.6301,0.70523
3394.6657,0.70435
3393.7013,0.70412
3392.7369,0.70396
3391.7725,0.70289
3390.8081,0.70098
3389.8437,0.69918
3388.8793,0.69777
3387.9149,0.69662
3386.9505,0.69643
3385.9861,0.69677
3385.0217,0.6962
3384.0573,0.69478
3383.093,0.69356
3382.1286,0.69256
3381.1642,0.69172
3380.1998,0.69137
3379.2354,0.69107
3378.271,0.69015
3377.3066,0.68839
3376.3422,0.68625
3375.3778,0.68487
3374.4134,0.68449
3373.449,0.68414
3372.4846,0.6833
3371.5202,0.68238
3370.5558,0.68185
3369.5914,0.68196
3368.627,0.68215
3367.6627,0.68169
3366.6983,0.6807
3365.7339,0.67974
3364.7695,0.67917
3363.8051,0.67875
3362.8407,0.67794
3361.8763,0.6771
3360.9119,0.67649
3359.9475,0.67588
3358.9831,0.67496
3358.0187,0.67343
3357.0543,0.67205
3356.0899,0.67159
3355.1255,0.67171
3354.1611,0.67174
3353.1968,0.67094
3352.2324,0.66933
3351.268,0.66795
3350.3036,0.66742
3349.3392,0.66734
3348.3748,0.6673
3347.4104,0.6673
3346.446,0.66642
3345.4816,0.66447
3344.5172,0.66313
3343.5528,0.66298
3342.5884,0.66302
3341.624,0.66237
3340.6596,0.66122
3339.6952,0.66049
3338.7308,0.65996
3337.7665,0.65892
3336.802,0.65739
3335.8377,0.65605
3334.8733,0.65559
3333.9089,0.65579
3332.9445,0.65563
3331.9801,0.65502
3331.0157,0.65448
3330.0513,0.65376
3329.0869,0.65257
3328.1225,0.65177
3327.1581,0.65169
3326.1937,0.65142
3325.2293,0.65047
3324.2649,0.64936
3323.3005,0.64855
3322.3362,0.64786
3321.3717,0.64687
3320.4074,0.64607
3319.443,0.6461
3318.4786,0.64603
3317.5142,0.64515
3316.5498,0.64469
3315.5854,0.64519
3314.621,0.64507
3313.6566,0.64354
3312.6922,0.64228
3311.7278,0.64182
3310.7634,0.64082
3309.799,0.63983
3308.8346,0.63975
3307.8702,0.63956
3306.9059,0.63868
3305.9415,0.63765
3304.9771,0.6365
3304.0127,0.63501
3303.0483,0.63371
3302.0839,0.63317
3301.1195,0.63302
3300.1551,0.63263
3299.1907,0.63237
3298.2263,0.6326
3297.2619,0.6326
3296.2975,0.63172
3295.3331,0.6303
3294.3687,0.62892
3293.4043,0.62797
3292.4399,0.62751
3291.4756,0.62724
3290.5112,0.62659
3289.5468,0.62555
3288.5824,0.62483
3287.618,0.62425
3286.6536,0.62314
3285.6892,0.62203
3284.7248,0.62192
3283.7604,0.62249
3282.796,0.62265
3281.8316,0.62211
3280.8672,0.62131
3279.9028,0.62066
3278.9384,0.62039
3277.974,0.62039
3277.0096,0.62024
3276.0453,0.62004
3275.0809,0.61978
3274.1165,0.61913
3273.1521,0.61886
3272.1877,0.61924
3271.2233,0.61955
3270.2589,0.61966
3269.2945,0.61943
3268.3301,0.61893
3267.3657,0.61855
3266.4013,0.61844
3265.4369,0.61867
3264.4725,0.61901
3263.5081,0.6189
3262.5437,0.61871
3261.5793,0.61905
3260.615,0.61962
3259.6506,0.61997
3258.6862,0.62024
3257.7218,0.62092
3256.7574,0.62196
3255.793,0.62295
3254.8286,0.6236
3253.8642,0.62387
3252.8998,0.62383
3251.9354,0.62353
3250.971,0.62334
3250.0066,0.62383
3249.0422,0.6246
3248.0778,0.62483
3247.1134,0.6249
3246.149,0.62544
3245.1847,0.62632
3244.2203,0.62693
3243.2559,0.62697
3242.2915,0.62754
3241.3271,0.62877
3240.3627,0.62915
3239.3983,0.62854
3238.4339,0.62865
3237.4695,0.62992
3236.5051,0.63129
3235.5407,0.6321
3234.5763,0.63271
3233.6119,0.63348
3232.6475,0.63439
3231.6831,0.6352
3230.7188,0.63524
3229.7544,0.63505
3228.79,0.63527
3227.8256,0.63531
3226.8612,0.63524
3225.8968,0.63581
3224.9324,0.63677
3223.968,0.63738
3223.0036,0.63788
3222.0392,0.6386
3221.0748,0.63925
3220.1104,0.63964
3219.146,0.63983
3218.1816,0.63952
3217.2172,0.63868
3216.2528,0.63857
3215.2885,0.63952
3214.3241,0.64063
3213.3597,0.64136
3212.3953,0.64151
3211.4309,0.6414
3210.4665,0.64167
3209.5021,0.64224
3208.5377,0.64278
3207.5733,0.64366
3206.6089,0.64496
3205.6445,0.64584
3204.6801,0.64622
3203.7157,0.64649
3202.7513,0.6466
3201.7869,0.64675
3200.8225,0.64718
3199.8582,0.64767
3198.8938,0.64817
3197.9294,0.64886
3196.965,0.64997
3196.0006,0.65158
3195.0362,0.65303
3194.0718,0.65368
3193.1074,0.65418
3192.143,0.65494
3191.1786,0.65552
3190.2142,0.65594
3189.2498,0.65628
3188.2854,0.65655
3187.321,0.65739
3186.3566,0.65885
3185.3922,0.66015
3184.4279,0.66107
3183.4635,0.66176
3182.4991,0.6621
3181.5347,0.66199
3180.5703,0.66218
3179.6059,0.66294
3178.6415,0.66367
3177.6771,0.66398
3176.7127,0.66428
3175.7483,0.66497
3174.7839,0.66631
3173.8195,0.66792
3172.8551,0.66945
3171.8907,0.67098
3170.9263,0.67239
3169.9619,0.67339
3168.9976,0.67381
3168.0332,0.67373
3167.0688,0.67373
3166.1044,0.67442
3165.14,0.67603
3164.1756,0.67756
3163.2112,0.67802
3162.2468,0.67817
3161.2824,0.67886
3160.318,0.67986
3159.3536,0.68066
3158.3892,0.68127
3157.4248,0.68211
3156.4604,0.68315
3155.4961,0.68437
3154.5316,0.68571
3153.5673,0.6869
3152.6029,0.68789
3151.6385,0.68889
3150.6741,0.68973
3149.7097,0.69011
3148.7453,0.69019
3147.7809,0.69084
3146.8165,0.6916
3145.8521,0.69203
3144.8877,0.69302
3143.9233,0.69413
3142.9589,0.6944
3141.9945,0.69463
3141.0301,0.69585
3140.0658,0.69704
3139.1013,0.69754
3138.137,0.69769
3137.1726,0.69765
3136.2082,0.69803
3135.2438,0.69941
3134.2794,0.70083
3133.315,0.70159
3132.3506,0.70178
3131.3862,0.70209
3130.4218,0.70308
3129.4574,0.70396
3128.493,0.70404
3127.5286,0.70408
3126.5642,0.70442
3125.5998,0.7045
3124.6355,0.704
3123.671,0.70347
3122.7067,0.7037
3121.7423,0.70442
3120.7779,0.70511
3119.8135,0.70553
3118.8491,0.70561
3117.8847,0.70538
3116.9203,0.70553
3115.9559,0.70641
3114.9915,0.70714
3114.0271,0.70749
3113.0627,0.7076
3112.0983,0.70764
3111.1339,0.70771
3110.1695,0.70764
3109.2051,0.70741
3108.2408,0.70752
3107.2764,0.70752
3106.312,0.70718
3105.3476,0.70687
3104.3832,0.7063
3103.4188,0.70572
3102.4544,0.70576
3101.49,0.70588
3100.5256,0.70584
3099.5612,0.70638
3098.5968,0.70722
3097.6324,0.70768
3096.668,0.70722
3095.7036,0.7066
3094.7393,0.70691
3093.7748,0.70741
3092.8105,0.70764
3091.8461,0.70771
3090.8817,0.70764
3089.9173,0.70749
3088.9529,0.7076
3087.9885,0.70783
3087.0241,0.70791
3086.0597,0.70779
3085.0953,0.7076
3084.1309,0.70756
3083.1665,0.70817
3082.2021,0.70944
3081.2377,0.71039
3080.2733,0.71043
3079.309,0.7099
3078.3445,0.70967
3077.3802,0.70986
3076.4158,0.7102
3075.4514,0.71085
3074.487,0.71177
3073.5226,0.71246
3072.5582,0.71257
3071.5938,0.71261
3070.6294,0.71319
3069.665,0.71372
3068.7006,0.71418
3067.7362,0.7151
3066.7718,0.71587
3065.8074,0.71636
3064.843,0.71747
3063.8787,0.71897
3062.9142,0.72011
3061.9499,0.72096
3060.9855,0.72164
3060.0211,0.72214
3059.0567,0.72287
3058.0923,0.72383
3057.1279,0.72417
3056.1635,0.7244
3055.1991,0.72543
3054.2347,0.72658
3053.2703,0.727
3052.3059,0.72735
3051.3415,0.72834
3050.3771,0.72937
3049.4127,0.72953
3048.4484,0.72953
3047.484,0.73037
3046.5196,0.73175
3045.5552,0.73274
3044.5908,0.73339
3043.6264,0.7342
3042.662,0.73523
3041.6976,0.73603
3040.7332,0.73684
3039.7688,0.7381
3038.8044,0.73951
3037.84,0.74059
3036.8756,0.74108
3035.9112,0.74135
3034.9468,0.74193
3033.9824,0.74281
3033.0181,0.74376
3032.0537,0.74445
3031.0893,0.74491
3030.1249,0.74552
3029.1605,0.74644
3028.1961,0.74744
3027.2317,0.74839
3026.2673,0.74897
3025.3029,0.74889
3024.3385,0.74901
3023.3741,0.75004
3022.4097,0.75138
3021.4453,0.75249
3020.4809,0.75329
3019.5165,0.75337
3018.5521,0.75329
3017.5878,0.75406
3016.6234,0.7552
3015.659,0.75601
3014.6946,0.75674
3013.7302,0.75723
3012.7658,0.75723
3011.8014,0.75731
3010.837,0.75742
3009.8726,0.75742
3008.9082,0.75788
3007.9438,0.75888
3006.9794,0.75995
3006.015,0.76052
3005.0506,0.76033
3004.0862,0.76022
3003.1218,0.76075
3002.1575,0.7614
3001.1931,0.76171
3000.2287,0.76163
2999.2643,0.76163
2998.2999,0.7619
2997.3355,0.76217
2996.3711,0.76228
2995.4067,0.76198
2994.4423,0.76125
2993.4779,0.76091
2992.5135,0.76148
2991.5491,0.76221
2990.5847,0.76202
2989.6203,0.76121
2988.6559,0.76094
2987.6916,0.76087
2986.7272,0.76049
2985.7628,0.76003
2984.7984,0.75949
2983.834,0.75892
2982.8696,0.75846
2981.9052,0.75804
2980.9408,0.75758
2979.9764,0.75635
2979.012,0.75429
2978.0476,0.75253
2977.0832,0.75176
2976.1188,0.75115
2975.1544,0.75015
2974.19,0.74912
2973.2256,0.74839
2972.2613,0.7479
2971.2969,0.74705
2970.3325,0.74537
2969.3681,0.74342
2968.4037,0.742
2967.4393,0.74093
2966.4749,0.74017
2965.5105,0.73936
2964.5461,0.73791
2963.5817,0.73596
2962.6173,0.73416
2961.6529,0.7327
2960.6885,0.73171
2959.7241,0.73102
2958.7597,0.72991
2957.7953,0.72846
2956.831,0.72742
2955.8666,0.7265
2954.9022,0.72543
2953.9378,0.7249
2952.9734,0.72478
2952.009,0.72474
2951.0446,0.72474
2950.0802,0.72448
2949.1158,0.72371
2948.1514,0.72275
2947.187,0.7221
2946.2226,0.72126
2945.2582,0.72023
2944.2938,0.71977
2943.3294,0.71897
2942.365,0.71698
2941.4007,0.71487
2940.4363,0.71319
2939.4719,0.71154
2938.5075,0.70986
2937.5431,0.70798
2936.5787,0.70576
2935.6143,0.70324
2934.6499,0.70052
2933.6855,0.69826
2932.7211,0.69643
2931.7567,0.69428
2930.7923,0.69199
2929.8279,0.69038
2928.8635,0.68946
2927.8991,0.6887
2926.9347,0.68755
2925.9704,0.68625
2925.006,0.68556
2924.0416,0.68529
2923.0772,0.68475
2922.1128,0.68418
2921.1484,0.68433
2920.184,0.68525
2919.2196,0.68629
2918.2552,0.68732
2917.2908,0.68847
2916.3264,0.68896
2915.362,0.68862
2914.3976,0.68827
2913.4332,0.68827
2912.4688,0.68785
2911.5044,0.68697
2910.5401,0.68651
2909.5757,0.68671
2908.6113,0.6864
2907.6469,0.68491
2906.6825,0.68322
2905.7181,0.68227
2904.7537,0.68108
2903.7893,0.67886
2902.8249,0.67614
2901.8605,0.67408
2900.8961,0.67285
2899.9317,0.6714
2898.9673,0.66945
2898.0029,0.66795
2897.0386,0.6678
2896.0741,0.6688
2895.1098,0.6701
2894.1454,0.67117
2893.181,0.67197
2892.2166,0.67297
2891.2522,0.67423
2890.2878,0.67607
2889.3234,0.67829
2888.359,0.68047
2887.3946,0.68227
2886.4302,0.68368
2885.4658,0.68506
2884.5014,0.68667
2883.537,0.68805
2882.5726,0.68916
2881.6083,0.6903
2880.6438,0.6913
2879.6795,0.69214
2878.7151,0.69294
2877.7507,0.69367
2876.7863,0.69463
2875.8219,0.69566
2874.8575,0.69608
2873.8931,0.69578
2872.9287,0.6957
2871.9643,0.69593
2870.9999,0.69558
2870.0355,0.69444
2869.0711,0.69375
2868.1067,0.69398
2867.1423,0.69417
2866.1779,0.69356
2865.2135,0.69275
2864.2492,0.69218
2863.2848,0.69191
2862.3204,0.69203
2861.356,0.69283
2860.3916,0.69417
2859.4272,0.69574
2858.4628,0.69727
2857.4984,0.69834
2856.534,0.69953
2855.5696,0.70109
2854.6052,0.70251
2853.6408,0.70431
2852.6764,0.70741
2851.712,0.71135
2850.7476,0.7151
2849.7833,0.71835
2848.8189,0.72149
2847.8545,0.72501
2846.8901,0.72914
2845.9257,0.73385
2844.9613,0.73814
2843.9969,0.74147
2843.0325,0.74426
2842.0681,0.74682
2841.1037,0.74939
2840.1393,0.75195
2839.1749,0.75394
2838.2105,0.75551
2837.2461,0.75716
2836.2818,0.75876
2835.3173,0.76026
2834.353,0.76186
2833.3886,0.76362
2832.4242,0.76538
2831.4598,0.76691
2830.4954,0.7681
2829.531,0.76929
2828.5666,0.77066
2827.6022,0.77223
2826.6378,0.77369
2825.6734,0.7748
2824.709,0.77591
2823.7446,0.77713
2822.7802,0.77824
2821.8158,0.77935
2820.8515,0.78031
2819.887,0.78073
2818.9227,0.78081
2817.9583,0.78115
2816.9939,0.78203
2816.0295,0.78325
2815.0651,0.78463
2814.1007,0.7862
2813.1363,0.78743
2812.1719,0.78804
2811.2075,0.78838
2810.2431,0.78884
2809.2787,0.78919
2808.3143,0.78957
2807.3499,0.79064
2806.3855,0.79209
2805.4212,0.79343
2804.4567,0.79493
2803.4924,0.79649
2802.528,0.79795
2801.5636,0.79936
2800.5992,0.80063
2799.6348,0.80155
2798.6704,0.80246
2797.706,0.8035
2796.7416,0.80461
2795.7772,0.80568
2794.8128,0.80648
2793.8484,0.80683
2792.884,0.80725
2791.9196,0.80794
2790.9552,0.80847
2789.9909,0.80897
2789.0265,0.80974
2788.0621,0.81084
2787.0977,0.81211
2786.1333,0.81314
2785.1689,0.81375
2784.2045,0.81417
2783.2401,0.8149
2782.2757,0.81605
2781.3113,0.81689
2780.3469,0.81731
2779.3825,0.81789
2778.4181,0.8185
2777.4537,0.81896
2776.4893,0.81938
2775.5249,0.81991
2774.5606,0.82053
2773.5962,0.82122
2772.6318,0.82179
2771.6674,0.82217
2770.703,0.82248
2769.7386,0.82278
2768.7742,0.8229
2767.8098,0.82328
2766.8454,0.82435
2765.881,0.82539
2764.9166,0.82592
2763.9522,0.826
2762.9878,0.82604
2762.0234,0.8265
2761.059,0.82734
2760.0947,0.82799
2759.1303,0.82829
2758.1659,0.82868
2757.2015,0.82902
2756.2371,0.8291
2755.2727,0.82925
2754.3083,0.83009
2753.3439,0.8312
2752.3795,0.83185
2751.4151,0.83185
2750.4507,0.83147
2749.4863,0.83124
2748.5219,0.83128
2747.5575,0.83143
2746.5931,0.83132
2745.6287,0.83128
2744.6644,0.83166
2743.7,0.83247
2742.7356,0.83331
2741.7712,0.83392
2740.8068,0.83426
2739.8424,0.83438
2738.878,0.83446
2737.9136,0.8348
2736.9492,0.83564
2735.9848,0.83698
2735.0204,0.83851
2734.056,0.83981
2733.0916,0.84058
2732.1272,0.84108
2731.1628,0.84146
2730.1984,0.84165
2729.2341,0.84169
2728.2697,0.84169
2727.3053,0.84196
2726.3409,0.84265
2725.3765,0.84333
2724.4121,0.84379
2723.4477,0.84421
2722.4833,0.84456
2721.5189,0.84444
2720.5545,0.84437
2719.5901,0.84494
2718.6257,0.84567
2717.6613,0.84594
2716.6969,0.84624
2715.7325,0.84701
2714.7681,0.84758
2713.8038,0.84773
2712.8394,0.848
2711.875,0.84854
2710.9106,0.849
2709.9462,0.84938
2708.9818,0.84972
2708.0174,0.84976
2707.053,0.84992
2706.0886,0.85049
2705.1242,0.85099
2704.1598,0.85114
2703.1954,0.85114
2702.231,0.85106
2701.2666,0.85126
2700.3022,0.85183
2699.3378,0.85225
2698.3735,0.85206
2697.4091,0.85183
2696.4447,0.85225
2695.4803,0.85325
2694.5159,0.85439
2693.5515,0.85508
2692.5871,0.85531
2691.6227,0.8555
2690.6583,0.85581
2689.6939,0.85634
2688.7295,0.85722
2687.7651,0.85822
2686.8007,0.85868
2685.8363,0.85841
2684.8719,0.85791
2683.9075,0.85799
2682.9432,0.85887
2681.9788,0.86006
2681.0144,0.86078
2680.05,0.86086
2679.0856,0.86113
2678.1212,0.8617
2677.1568,0.86178
2676.1924,0.86159
2675.228,0.86178
2674.2636,0.86231
2673.2992,0.86296
2672.3348,0.8635
2671.3704,0.8635
2670.406,0.8635
2669.4416,0.86407
2668.4772,0.86465
2667.5129,0.86488
2666.5485,0.86511
2665.5841,0.86526
2664.6197,0.86522
2663.6553,0.86495
2662.6909,0.8645
2661.7265,0.86404
2660.7621,0.86392
2659.7977,0.86411
2658.8333,0.86419
2657.8689,0.86419
2656.9045,0.86419
2655.9401,0.86404
2654.9757,0.864
2654.0113,0.864
2653.0469,0.86407
2652.0826,0.86488
2651.1182,0.86591
2650.1538,0.8661
2649.1894,0.86561
2648.225,0.86522
2647.2606,0.86511
2646.2962,0.86488
2645.3318,0.86495
2644.3674,0.86538
2643.403,0.86545
2642.4386,0.8653
2641.4742,0.86549
2640.5098,0.8658
2639.5454,0.86603
2638.581,0.86591
2637.6166,0.86572
2636.6523,0.8661
2635.6879,0.86702
2634.7235,0.86775
2633.7591,0.86832
2632.7947,0.86874
2631.8303,0.86863
2630.8659,0.86805
2629.9015,0.86802
2628.9371,0.86874
2627.9727,0.86916
2627.0083,0.8692
2626.0439,0.86981
2625.0795,0.87062
2624.1151,0.87069
2623.1507,0.87062
2622.1863,0.87096
2621.222,0.87135
2620.2576,0.87131
2619.2932,0.87112
2618.3288,0.87135
2617.3644,0.8718
2616.4,0.87173
2615.4356,0.87123
2614.4712,0.87108
2613.5068,0.87154
2612.5424,0.87219
2611.578,0.87307
2610.6136,0.87391
2609.6492,0.87414
2608.6848,0.87406
2607.7204,0.87399
2606.756,0.87383
2605.7917,0.8741
2604.8273,0.8746
2603.8629,0.87425
2602.8985,0.8733
2601.9341,0.87295
2600.9697,0.87341
2600.0053,0.87418
2599.0409,0.87487
2598.0765,0.87525
2597.1121,0.87567
2596.1477,0.87644
2595.1833,0.87728
2594.2189,0.87785
2593.2545,0.87758
2592.2901,0.87693
2591.3258,0.87712
2590.3614,0.87823
2589.397,0.87919
2588.4326,0.87919
2587.4682,0.87869
2586.5038,0.87881
2585.5394,0.87927
2584.575,0.87957
2583.6106,0.88007
2582.6462,0.88045
2581.6818,0.88022
2580.7174,0.87999
2579.753,0.87999
2578.7886,0.87988
2577.8243,0.87973
2576.8598,0.88022
2575.8955,0.88137
2574.9311,0.88237
2573.9667,0.88229
2573.0023,0.88168
2572.0379,0.88168
2571.0735,0.88195
2570.1091,0.88179
2569.1447,0.88145
2568.1803,0.88118
2567.2159,0.88141
2566.2515,0.88279
2565.2871,0.88439
2564.3227,0.88482
2563.3583,0.88439
2562.394,0.88428
2561.4295,0.88478
2560.4652,0.88562
2559.5008,0.886
2558.5364,0.88535
2557.572,0.88466
2556.6076,0.88505
2555.6432,0.88566
2554.6788,0.88573
2553.7144,0.88577
2552.75,0.88642
2551.7856,0.88688
2550.8212,0.88642
2549.8568,0.88554
2548.8924,0.88524
2547.928,0.88596
2546.9637,0.88719
2545.9992,0.88872
2545.0349,0.89017
2544.0705,0.89029
2543.1061,0.88895
2542.1417,0.88761
2541.1773,0.88757
2540.2129,0.88864
2539.2485,0.88987
2538.2841,0.89063
2537.3197,0.8909
2536.3553,0.89033
2535.3909,0.8896
2534.4265,0.8896
2533.4621,0.89044
2532.4977,0.89151
2531.5334,0.89186
2530.569,0.89101
2529.6046,0.89021
2528.6402,0.89071
2527.6758,0.89189
2526.7114,0.89235
2525.747,0.89243
2524.7826,0.89304
2523.8182,0.89331
2522.8538,0.89274
2521.8894,0.89235
2520.925,0.89224
2519.9606,0.89228
2518.9962,0.89289
2518.0318,0.89411
2517.0674,0.89511
2516.1031,0.89511
2515.1387,0.8945
2514.1743,0.89408
2513.2099,0.89427
2512.2455,0.89465
2511.2811,0.89461
2510.3167,0.89457
2509.3523,0.89503
2508.3879,0.89553
2507.4235,0.89603
2506.4591,0.89679
2505.4947,0.89725
2504.5303,0.89714
2503.5659,0.89683
2502.6015,0.89714
2501.6372,0.8979
2500.6728,0.89825
2499.7084,0.89844
2498.744,0.89874
2497.7796,0.89913
2496.8152,0.90012
2495.8508,0.90089
2494.8864,0.90035
2493.922,0.8994
2492.9576,0.89936
2491.9932,0.90031
2491.0288,0.90161
2490.0644,0.90196
2489.1,0.90062
2488.1356,0.89924
2487.1712,0.89947
2486.2069,0.90073
2485.2425,0.90177
2484.2781,0.90204
2483.3137,0.90184
2482.3493,0.90211
2481.3849,0.90318
2480.4205,0.90429
2479.4561,0.90475
2478.4917,0.90464
2477.5273,0.90468
2476.5629,0.90521
2475.5985,0.90582
2474.6341,0.90628
2473.6697,0.90655
2472.7053,0.90659
2471.7409,0.90667
2470.7766,0.90716
2469.8122,0.9077
2468.8478,0.90758
2467.8834,0.90716
2466.919,0.90713
2465.9546,0.9077
2464.9902,0.90839
2464.0258,0.90877
2463.0614,0.90873
2462.097,0.90854
2461.1326,0.90881
2460.1682,0.90957
2459.2038,0.90938
2458.2394,0.90831
2457.275,0.9077
2456.3106,0.90762
2455.3463,0.90766
2454.3819,0.90781
2453.4175,0.90812
2452.4531,0.90869
2451.4887,0.90912
2450.5243,0.90866
2449.5599,0.9082
2448.5955,0.90915
2447.6311,0.91068
2446.6667,0.91156
2445.7023,0.91214
2444.7379,0.91264
2443.7735,0.91317
2442.8091,0.91417
2441.8447,0.9152
2440.8803,0.9152
2439.916,0.9144
2438.9516,0.91352
2437.9872,0.9131
2437.0228,0.91355
2436.0584,0.91489
2435.094,0.91642
2434.1296,0.9175
2433.1652,0.91788
2432.2008,0.91795
2431.2364,0.9178
2430.272,0.91723
2429.3076,0.91654
2428.3432,0.91654
2427.3788,0.91738
2426.4144,0.91799
2425.45,0.91788
2424.4857,0.91811
2423.5213,0.9188
2422.5569,0.9191
2421.5925,0.91945
2420.6281,0.92025
2419.6637,0.92071
2418.6993,0.92052
2417.7349,0.92033
2416.7705,0.92033
2415.8061,0.92063
2414.8417,0.92098
2413.8773,0.92128
2412.9129,0.92171
2411.9485,0.92193
2410.9841,0.92213
2410.0197,0.92251
2409.0554,0.92297
2408.091,0.92343
2407.1266,0.92377
2406.1622,0.92392
2405.1978,0.92446
2404.2334,0.92538
2403.269,0.92614
2402.3046,0.92691
2401.3402,0.92745
2400.3758,0.92729
2399.4114,0.92653
2398.447,0.92603
2397.4826,0.92626
2396.5182,0.92718
2395.5538,0.92806
2394.5894,0.92836
2393.6251,0.92833
2392.6607,0.92813
2391.6963,0.92794
2390.7319,0.92817
2389.7675,0.92852
2388.8031,0.92844
2387.8387,0.92848
2386.8743,0.92905
2385.9099,0.92955
2384.9455,0.92966
2383.9811,0.9297
2383.0167,0.92966
2382.0523,0.92963
2381.0879,0.92993
2380.1235,0.93054
2379.1591,0.93116
2378.1948,0.93154
2377.2304,0.93154
2376.266,0.93146
2375.3016,0.93135
2374.3372,0.93089
2373.3728,0.93001
2372.4084,0.92901
2371.444,0.92871
2370.4796,0.92921
2369.5152,0.92921
2368.5508,0.9281
2367.5864,0.92702
2366.622,0.9271
2365.6576,0.92794
2364.6932,0.92802
2363.7288,0.92725
2362.7645,0.92706
2361.8001,0.92722
2360.8357,0.92645
2359.8713,0.9253
2358.9069,0.92507
2357.9425,0.92584
2356.9781,0.92672
2356.0137,0.92741
2355.0493,0.92813
2354.0849,0.92875
2353.1205,0.92928
2352.1561,0.93001
2351.1917,0.93077
2350.2273,0.9315
2349.2629,0.93227
2348.2985,0.93284
2347.3342,0.93257
2346.3698,0.93131
2345.4054,0.93016
2344.441,0.92966
2343.4766,0.92974
2342.5122,0.92989
2341.5478,0.92947
2340.5834,0.92875
2339.619,0.9284
2338.6546,0.9284
2337.6902,0.92878
2336.7258,0.92913
2335.7614,0.92928
2334.797,0.92966
2333.8326,0.92989
2332.8683,0.92936
2331.9039,0.92921
2330.9395,0.93024
2329.9751,0.93131
2329.0107,0.93158
2328.0463,0.93097
2327.0819,0.92944
2326.1175,0.92618
2325.1531,0.9214
2324.1887,0.91753
2323.2243,0.91665
2322.2599,0.91818
2321.2955,0.92025
2320.3311,0.92178
2319.3668,0.92293
2318.4023,0.92366
2317.438,0.92392
2316.4736,0.92435
2315.5092,0.92503
2314.5448,0.92561
2313.5804,0.92607
2312.616,0.92699
2311.6516,0.92844
2310.6872,0.92959
2309.7228,0.92936
2308.7584,0.92783
2307.794,0.92668
2306.8296,0.92687
2305.8652,0.9276
2304.9008,0.92825
2303.9365,0.92882
2302.972,0.92905
2302.0077,0.92871
2301.0433,0.92825
2300.0789,0.92813
2299.1145,0.92833
2298.1501,0.92856
2297.1857,0.92833
2296.2213,0.92817
2295.2569,0.92829
2294.2925,0.92806
2293.3281,0.9276
2292.3637,0.92729
2291.3993,0.9271
2290.4349,0.9271
2289.4705,0.92706
2288.5062,0.92626
2287.5417,0.9253
2286.5774,0.92454
2285.613,0.92285
2284.6486,0.92125
2283.6842,0.92201
2282.7198,0.92377
2281.7554,0.92427
2280.791,0.92427
2279.8266,0.92473
2278.8622,0.92526
2277.8978,0.92526
2276.9334,0.92458
2275.969,0.92454
2275.0046,0.92588
2274.0402,0.92745
2273.0759,0.92821
2272.1115,0.92813
2271.1471,0.92798
2270.1827,0.92806
2269.2183,0.9279
2268.2539,0.9276
2267.2895,0.92813
2266.3251,0.92867
2265.3607,0.92806
2264.3963,0.9279
2263.4319,0.92894
2262.4675,0.92905
2261.5031,0.92798
2260.5387,0.92775
2259.5743,0.92859
2258.6099,0.92905
2257.6456,0.92867
2256.6812,0.92878
2255.7168,0.92986
2254.7524,0.93062
2253.788,0.93054
2252.8236,0.93051
2251.8592,0.93058
2250.8948,0.93047
2249.9304,0.93074
2248.966,0.93139
2248.0016,0.93127
2247.0372,0.93051
2246.0728,0.92951
2245.1084,0.92886
2244.144,0.92928
2243.1797,0.92947
2242.2153,0.92882
2241.2509,0.92882
2240.2865,0.93035
2239.3221,0.93234
2238.3577,0.93265
2237.3933,0.93108
2236.4289,0.92932
2235.4645,0.92813
2234.5001,0.92798
2233.5357,0.9289
2232.5713,0.92986
2231.6069,0.9297
2230.6425,0.92798
2229.6781,0.92637
2228.7137,0.92702
2227.7494,0.92882
2226.785,0.92878
2225.8206,0.9276
2224.8562,0.92794
2223.8918,0.92871
2222.9274,0.92898
2221.963,0.93012
2220.9986,0.93054
2220.0342,0.92905
2219.0698,0.9279
2218.1054,0.92924
2217.141,0.93185
2216.1766,0.93303
2215.2122,0.9325
2214.2478,0.93077
2213.2834,0.92844
2212.3191,0.92714
2211.3547,0.92756
2210.3903,0.92905
2209.4259,0.93051
2208.4615,0.93093
2207.4971,0.93062
2206.5327,0.93016
2205.5683,0.92963
2204.6039,0.93005
2203.6395,0.9325
2202.6751,0.93315
2201.7107,0.92886
2200.7463,0.925
2199.7819,0.92576
2198.8175,0.92798
2197.8531,0.92932
2196.8888,0.92974
2195.9244,0.92913
2194.96,0.92913
2193.9956,0.93074
2193.0312,0.93204
2192.0668,0.93177
2191.1024,0.93051
2190.138,0.92886
2189.1736,0.92748
2188.2092,0.92657
2187.2448,0.92565
2186.2804,0.92503
2185.316,0.92553
2184.3516,0.92634
2183.3872,0.92741
2182.4228,0.92989
2181.4585,0.93361
2180.4941,0.9359
2179.5297,0.9343
2178.5653,0.93108
2177.6009,0.92913
2176.6365,0.92825
2175.6721,0.92886
2174.7077,0.93035
2173.7433,0.9312
2172.7789,0.93097
2171.8145,0.92959
2170.8501,0.9281
2169.8857,0.92718
2168.9213,0.9258
2167.9569,0.92373
2166.9925,0.92224
2166.0282,0.92308
2165.0638,0.92477
2164.0994,0.92415
2163.135,0.92171
2162.1706,0.91822
2161.2062,0.91386
2160.2418,0.91279
2159.2774,0.92301
2158.313,0.9426
2157.3486,0.95618
2156.3842,0.95798
2155.4198,0.9553
2154.4554,0.9537
2153.491,0.9527
2152.5266,0.94895
2151.5622,0.94367
2150.5979,0.94229
2149.6335,0.9449
2148.6691,0.94635
2147.7047,0.94497
2146.7403,0.94371
2145.7759,0.94432
2144.8115,0.94593
2143.8471,0.94666
2142.8827,0.94493
2141.9183,0.94279
2140.9539,0.94287
2139.9895,0.94348
2139.0251,0.94428
2138.0607,0.94723
2137.0963,0.94903
2136.1319,0.94711
2135.1676,0.94696
2134.2032,0.95228
2133.2388,0.95779
2132.2744,0.95787
2131.31,0.95469
2130.3456,0.9527
2129.3812,0.95159
2128.4168,0.95021
2127.4524,0.94895
2126.488,0.94799
2125.5236,0.94757
2124.5592,0.94719
2123.5948,0.94558
2122.6304,0.94371
2121.666,0.94336
2120.7016,0.94405
2119.7373,0.94402
2118.7729,0.94245
2117.8085,0.94053
2116.8441,0.93889
2115.8797,0.93732
2114.9153,0.93602
2113.9509,0.93495
2112.9865,0.93452
2112.0221,0.93533
2111.0577,0.93663
2110.0933,0.93697
2109.1289,0.93674
2108.1645,0.93743
2107.2001,0.93839
2106.2357,0.9385
2105.2713,0.93843
2104.307,0.939
2103.3426,0.93919
2102.3782,0.93824
2101.4138,0.93694
2100.4494,0.93602
2099.485,0.93529
2098.5206,0.93498
2097.5562,0.9354
2096.5918,0.93659
2095.6274,0.93858
2094.663,0.94145
2093.6986,0.94459
2092.7342,0.94547
2091.7698,0.94333
2090.8054,0.94042
2089.841,0.93896
2088.8767,0.93981
2087.9123,0.94134
2086.9479,0.94069
2085.9835,0.9385
2085.0191,0.93759
2084.0547,0.93843
2083.0903,0.93961
2082.1259,0.93992
2081.1615,0.93916
2080.1971,0.93743
2079.2327,0.93575
2078.2683,0.93529
2077.3039,0.93632
2076.3395,0.93793
2075.3751,0.93839
2074.4108,0.93751
2073.4464,0.93709
2072.482,0.93736
2071.5176,0.93778
2070.5532,0.93889
2069.5888,0.93981
2068.6244,0.939
2067.66,0.93694
2066.6956,0.93548
2065.7312,0.93606
2064.7668,0.93762
2063.8024,0.93896
2062.838,0.94053
2061.8736,0.94199
2060.9092,0.94233
2059.9448,0.94149
2058.9805,0.93961
2058.0161,0.93793
2057.0517,0.93743
2056.0873,0.93743
2055.1229,0.93835
2054.1585,0.94099
2053.1941,0.94168
2052.2297,0.93713
2051.2653,0.93047
2050.3009,0.92595
2049.3365,0.92599
2048.3721,0.93032
2047.4077,0.93487
2046.4433,0.93717
2045.4789,0.93797
2044.5146,0.93728
2043.5502,0.93586
2042.5858,0.93606
2041.6214,0.93709
2040.657,0.93655
2039.6926,0.93533
2038.7282,0.9341
2037.7638,0.93269
2036.7994,0.93284
2035.835,0.93533
2034.8706,0.93801
2033.9062,0.939
2032.9418,0.93808
2031.9774,0.93678
2031.013,0.93713
2030.0486,0.93847
2029.0843,0.93774
2028.1199,0.93625
2027.1555,0.9382
2026.1911,0.94195
2025.2267,0.94352
2024.2623,0.94321
2023.2979,0.94363
2022.3335,0.94543
2021.3691,0.94711
2020.4047,0.94666
2019.4403,0.94317
2018.4759,0.94034
2017.5115,0.94187
2016.5471,0.946
2015.5827,0.94979
2014.6183,0.95171
2013.654,0.95071
2012.6896,0.94991
2011.7252,0.95152
2010.7608,0.95132
2009.7964,0.9483
2008.832,0.94704
2007.8676,0.94826
2006.9032,0.94998
2005.9388,0.9519
2004.9744,0.954
2004.01,0.95488
2003.0456,0.9537
2002.0812,0.95224
2001.1168,0.95121
2000.1524,0.94968
1999.188,0.94891
1998.2237,0.94876
1997.2593,0.94704
1996.2949,0.94612
1995.3305,0.94822
1994.3661,0.94887
1993.4017,0.94654
1992.4373,0.94643
1991.4729,0.94887
1990.5085,0.94872
1989.5441,0.94604
1988.5797,0.94467
1987.6153,0.94421
1986.6509,0.94325
1985.6865,0.94233
1984.7222,0.94149
1983.7577,0.94084
1982.7934,0.9403
1981.829,0.93854
1980.8646,0.93426
1979.9002,0.92856
1978.9358,0.92767
1977.9714,0.93518
1977.007,0.94413
1976.0426,0.94903
1975.0782,0.95232
1974.1138,0.95504
1973.1494,0.95626
1972.185,0.95626
1971.2206,0.95561
1970.2562,0.95431
1969.2919,0.95255
1968.3274,0.95106
1967.3631,0.9509
1966.3987,0.95247
1965.4343,0.95408
1964.4699,0.95473
1963.5055,0.95565
1962.5411,0.95626
1961.5767,0.95641
1960.6123,0.95802
1959.6479,0.96051
1958.6835,0.962
1957.7191,0.96173
1956.7547,0.96024
1955.7903,0.95993
1954.8259,0.96135
1953.8616,0.9615
1952.8972,0.9599
1951.9328,0.95905
1950.9684,0.95898
1950.004,0.95825
1949.0396,0.95729
1948.0752,0.95756
1947.1108,0.9599
1946.1464,0.96227
1945.182,0.96173
1944.2176,0.95978
1943.2532,0.95997
1942.2888,0.96177
1941.3244,0.96265
1940.36,0.96296
1939.3956,0.96376
1938.4313,0.96456
1937.4669,0.96476
1936.5025,0.96506
1935.5381,0.96514
1934.5737,0.96334
1933.6093,0.96108
1932.6449,0.9612
1931.6805,0.963
1930.7161,0.96479
1929.7517,0.96594
1928.7873,0.96617
1927.8229,0.9659
1926.8585,0.96544
1925.8941,0.96479
1924.9297,0.96472
1923.9653,0.96583
1923.001,0.96713
1922.0366,0.96736
1921.0722,0.96632
1920.1078,0.96445
1919.1434,0.96384
1918.179,0.9659
1917.2146,0.96847
1916.2502,0.96958
1915.2858,0.96919
1914.3214,0.96751
1913.357,0.96594
1912.3926,0.96594
1911.4282,0.9669
1910.4638,0.96755
1909.4994,0.96705
1908.535,0.96598
1907.5706,0.96552
1906.6063,0.9656
1905.6419,0.96583
1904.6775,0.96583
1903.7131,0.96529
1902.7487,0.96499
1901.7843,0.96548
1900.8199,0.96617
1899.8555,0.96671
1898.8911,0.96736
1897.9267,0.9677
1896.9623,0.96724
1895.9979,0.96659
1895.0335,0.96636
1894.0691,0.96675
1893.1047,0.96728
1892.1403,0.96713
1891.176,0.96644
1890.2116,0.96606
1889.2472,0.96667
1888.2828,0.96782
1887.3184,0.96881
1886.354,0.96962
1885.3896,0.96954
1884.4252,0.9687
1883.4608,0.96885
1882.4964,0.97004
1881.532,0.9705
1880.5676,0.96981
1879.6032,0.96927
1878.6388,0.96988
1877.6744,0.97084
1876.7101,0.97088
1875.7457,0.97027
1874.7813,0.97008
1873.8169,0.97053
1872.8525,0.9713
1871.8881,0.97206
1870.9237,0.97256
1869.9593,0.97241
1868.9949,0.9718
1868.0305,0.97149
1867.0661,0.97134
1866.1017,0.97084
1865.1373,0.97038
1864.1729,0.97053
1863.2086,0.97118
1862.2441,0.97176
1861.2798,0.97184
1860.3154,0.97149
1859.351,0.97138
1858.3866,0.9718
1857.4222,0.97195
1856.4578,0.97161
1855.4934,0.97199
1854.529,0.97302
1853.5646,0.97344
1852.6002,0.97302
1851.6358,0.97226
1850.6714,0.97153
1849.707,0.97138
1848.7426,0.97199
1847.7783,0.97249
1846.8139,0.97218
1845.8495,0.97153
1844.8851,0.97145
1843.9207,0.97203
1842.9563,0.97233
1841.9919,0.97214
1841.0275,0.97241
1840.0631,0.97291
1839.0987,0.97264
1838.1343,0.97241
1837.1699,0.97256
1836.2055,0.97245
1835.2411,0.97218
1834.2767,0.9721
1833.3123,0.97203
1832.348,0.97176
1831.3836,0.97145
1830.4192,0.9713
1829.4548,0.97164
1828.4904,0.97218
1827.526,0.97226
1826.5616,0.97206
1825.5972,0.97199
1824.6328,0.97199
1823.6684,0.97206
1822.704,0.97199
1821.7396,0.97138
1820.7752,0.97069
1819.8108,0.97057
1818.8464,0.97145
1817.882,0.97352
1816.9177,0.97582
1815.9533,0.97666
1814.9889,0.97597
1814.0245,0.97505
1813.0601,0.97425
1812.0957,0.97352
1811.1313,0.97298
1810.1669,0.97245
1809.2025,0.97153
1808.2381,0.97057
1807.2737,0.97042
1806.3093,0.97122
1805.3449,0.97203
1804.3805,0.97218
1803.4161,0.97187
1802.4517,0.97134
1801.4874,0.97057
1800.523,0.97008
1799.5586,0.97011
1798.5942,0.97008
1797.6298,0.96946
1796.6654,0.96862
1795.701,0.96786
1794.7366,0.96717
1793.7722,0.96671
1792.8078,0.96648
1791.8434,0.96667
1790.879,0.96701
1789.9146,0.96678
1788.9502,0.96567
1787.9858,0.96456
1787.0214,0.96399
1786.057,0.96384
1785.0927,0.96376
1784.1283,0.96349
1783.1639,0.963
1782.1995,0.962
1781.2351,0.96101
1780.2707,0.96089
1779.3063,0.96116
1778.3419,0.96124
1777.3775,0.96127
1776.4131,0.96124
1775.4487,0.96089
1774.4843,0.96051
1773.5199,0.95986
1772.5555,0.9594
1771.5911,0.95936
1770.6267,0.95909
1769.6624,0.95844
1768.698,0.95794
1767.7336,0.95749
1766.7692,0.95683
1765.8048,0.95618
1764.8404,0.95576
1763.876,0.95561
1762.9116,0.95534
1761.9472,0.9545
1760.9828,0.95324
1760.0184,0.95217
1759.054,0.95159
1758.0896,0.95086
1757.1252,0.94941
1756.1608,0.94742
1755.1965,0.94543
1754.2321,0.94413
1753.2677,0.94348
1752.3033,0.94237
1751.3389,0.94076
1750.3745,0.93942
1749.4101,0.93801
1748.4457,0.9359
1747.4813,0.93368
1746.5169,0.93196
1745.5525,0.93043
1744.5881,0.92871
1743.6237,0.92714
1742.6593,0.92618
1741.6949,0.92565
1740.7305,0.92465
1739.7662,0.92312
1738.8018,0.92201
1737.8374,0.92148
1736.873,0.92079
1735.9086,0.91964
1734.9442,0.91853
1733.9798,0.91799
1733.0154,0.91788
1732.051,0.91753
1731.0866,0.91673
1730.1222,0.91597
1729.1578,0.91562
1728.1934,0.91512
1727.229,0.91413
1726.2647,0.91294
1725.3003,0.91218
1724.3359,0.91183
1723.3715,0.91095
1722.4071,0.90931
1721.4427,0.90766
1720.4783,0.90609
1719.5139,0.9041
1718.5495,0.90188
1717.5851,0.89974
1716.6207,0.89752
1715.6563,0.89545
1714.6919,0.89377
1713.7275,0.89216
1712.7631,0.89002
1711.7987,0.88746
1710.8344,0.88489
1709.87,0.8824
1708.9056,0.8798
1707.9412,0.87674
1706.9768,0.87326
1706.0124,0.86985
1705.048,0.86645
1704.0836,0.8627
1703.1192,0.85856
1702.1548,0.85374
1701.1904,0.84793
1700.226,0.8418
1699.2616,0.83614
1698.2972,0.83036
1697.3328,0.82355
1696.3684,0.81609
1695.4041,0.80943
1694.4397,0.80361
1693.4753,0.7973
1692.5109,0.7906
1691.5465,0.78406
1690.5821,0.77728
1689.6177,0.76982
1688.6533,0.76221
1687.6889,0.75467
1686.7245,0.74659
1685.7601,0.73783
1684.7957,0.72934
1683.8313,0.72134
1682.8669,0.71323
1681.9025,0.70454
1680.9381,0.69566
1679.9738,0.68694
1679.0094,0.67813
1678.045,0.66891
1677.0806,0.65938
1676.1162,0.64989
1675.1518,0.64071
1674.1874,0.63168
1673.223,0.62226
1672.2586,0.61239
1671.2942,0.60236
1670.3298,0.59253
1669.3654,0.58296
1668.401,0.57351
1667.4366,0.5641
1666.4722,0.55476
1665.5078,0.54531
1664.5434,0.53589
1663.5791,0.52686
1662.6147,0.51829
1661.6503,0.50991
1660.6859,0.50161
1659.7215,0.49357
1658.7571,0.48576
1657.7927,0.47807
1656.8283,0.47046
1655.8639,0.46334
1654.8995,0.45668
1653.9351,0.45029
1652.9707,0.44436
1652.0063,0.43958
1651.0419,0.43563
1650.0775,0.43169
1649.1131,0.42767
1648.1488,0.42412
1647.1844,0.42098
1646.22,0.41838
1645.2556,0.41654
1644.2912,0.41466
1643.3268,0.41241
1642.3624,0.41057
1641.398,0.40927
1640.4336,0.40824
1639.4692,0.40716
1638.5048,0.40582
1637.5404,0.4046
1636.576,0.40391
1635.6116,0.40372
1634.6472,0.40376
1633.6828,0.40387
1632.7185,0.40437
1631.7541,0.40525
1630.7897,0.40617
1629.8253,0.4072
1628.8609,0.40889
1627.8965,0.41118
1626.9321,0.41355
1625.9677,0.41604
1625.0033,0.41868
1624.0389,0.42151
1623.0745,0.42519
1622.1101,0.43012
1621.1457,0.43579
1620.1813,0.44183
1619.2169,0.44792
1618.2526,0.45366
1617.2882,0.45963
1616.3238,0.46671
1615.3594,0.47463
1614.395,0.4827
1613.4306,0.49062
1612.4662,0.49862
1611.5018,0.50681
1610.5374,0.51512
1609.573,0.52323
1608.6086,0.53111
1607.6442,0.53884
1606.6798,0.54634
1605.7154,0.55327
1604.7511,0.55966
1603.7867,0.56586
1602.8223,0.57183
1601.8579,0.57703
1600.8935,0.58166
1599.9291,0.58602
1598.9647,0.5902
1598.0003,0.59398
1597.0359,0.59754
1596.0715,0.6006
1595.1071,0.60298
1594.1427,0.60508
1593.1783,0.60722
1592.2139,0.60914
1591.2495,0.61036
1590.2851,0.61109
1589.3208,0.61136
1588.3564,0.61136
1587.392,0.61105
1586.4276,0.61048
1585.4632,0.6096
1584.4988,0.60833
1583.5344,0.60638
1582.57,0.60382
1581.6056,0.6011
1580.6412,0.59854
1579.6768,0.59563
1578.7124,0.59211
1577.748,0.58809
1576.7836,0.58388
1575.8192,0.58002
1574.8548,0.57646
1573.8905,0.57248
1572.9261,0.56804
1571.9617,0.56329
1570.9973,0.5584
1570.0329,0.55346
1569.0685,0.54879
1568.1041,0.54412
1567.1397,0.53915
1566.1753,0.53406
1565.2109,0.52897
1564.2465,0.52392
1563.2821,0.51856
1562.3177,0.51297
1561.3533,0.50742
1560.3889,0.50222
1559.4245,0.49728
1558.4602,0.49265
1557.4958,0.48875
1556.5314,0.48511
1555.567,0.4809
1554.6026,0.47647
1553.6382,0.4726
1552.6738,0.46912
1551.7094,0.46567
1550.745,0.46231
1549.7806,0.45928
1548.8162,0.45657
1547.8518,0.4537
1546.8874,0.45079
1545.923,0.44838
1544.9586,0.44639
1543.9942,0.4444
1543.0298,0.44264
1542.0655,0.44107
1541.1011,0.43969
1540.1367,0.43885
1539.1723,0.43896
1538.2079,0.4395
1537.2435,0.43965
1536.2791,0.43965
1535.3147,0.44011
1534.3503,0.44088
1533.3859,0.44187
1532.4215,0.44336
1531.4571,0.44505
1530.4927,0.4465
1529.5283,0.44799
1528.5639,0.44998
1527.5995,0.45224
1526.6352,0.4545
1525.6708,0.45676
1524.7064,0.45932
1523.742,0.46219
1522.7776,0.46514
1521.8132,0.46797
1520.8488,0.47103
1519.8844,0.47417
1518.92,0.477
1517.9556,0.47979
1516.9912,0.48332
1516.0268,0.48787
1515.0624,0.49323
1514.098,0.49885
1513.1336,0.50475
1512.1692,0.51137
1511.2049,0.51833
1510.2405,0.52529
1509.2761,0.5323
1508.3117,0.5393
1507.3473,0.54669
1506.3829,0.55453
1505.4185,0.56257
1504.4541,0.57053
1503.4897,0.57814
1502.5253,0.58537
1501.5609,0.59238
1500.5965,0.59907
1499.6321,0.60554
1498.6677,0.61208
1497.7034,0.6184
1496.739,0.62456
1495.7746,0.63087
1494.8102,0.63715
1493.8458,0.64316
1492.8814,0.6489
1491.917,0.65429
1490.9526,0.65934
1489.9882,0.66428
1489.0238,0.66937
1488.0594,0.6745
1487.095,0.67917
1486.1306,0.68311
1485.1662,0.68655
1484.2018,0.68984
1483.2374,0.69283
1482.2731,0.69551
1481.3087,0.69746
1480.3443,0.69826
1479.3799,0.69822
1478.4155,0.69784
1477.4511,0.69719
1476.4867,0.69677
1475.5223,0.69692
1474.5579,0.69662
1473.5935,0.6947
1472.6291,0.69118
1471.6647,0.68663
1470.7003,0.68158
1469.7359,0.67733
1468.7715,0.67595
1467.8072,0.67767
1466.8428,0.67936
1465.8784,0.67798
1464.914,0.67454
1463.9496,0.67243
1462.9852,0.67255
1462.0208,0.6727
1461.0564,0.67105
1460.092,0.66803
1459.1276,0.66447
1458.1632,0.66088
1457.1988,0.65785
1456.2344,0.65632
1455.27,0.65644
1454.3056,0.6569
1453.3412,0.65655
1452.3769,0.65533
1451.4125,0.65383
1450.4481,0.65227
1449.4837,0.65077
1448.5193,0.64978
1447.5549,0.64936
1446.5905,0.64924
1445.6261,0.64932
1444.6617,0.64955
1443.6973,0.64982
1442.7329,0.65024
1441.7685,0.65051
1440.8041,0.65016
1439.8397,0.64982
1438.8753,0.64989
1437.9109,0.64982
1436.9465,0.64947
1435.9822,0.64955
1435.0178,0.65001
1434.0534,0.65028
1433.089,0.65035
1432.1246,0.65031
1431.1602,0.65028
1430.1958,0.65031
1429.2314,0.65047
1428.267,0.65085
1427.3026,0.65116
1426.3382,0.65112
1425.3738,0.65096
1424.4094,0.65089
1423.445,0.65096
1422.4806,0.65096
1421.5162,0.65051
1420.5519,0.6497
1419.5875,0.64917
1418.6231,0.64909
1417.6587,0.64882
1416.6943,0.64813
1415.7299,0.64775
1414.7655,0.64779
1413.8011,0.64779
1412.8367,0.64775
1411.8723,0.6479
1410.9079,0.64825
1409.9435,0.64848
1408.9791,0.64844
1408.0147,0.64859
1407.0503,0.64905
1406.0859,0.64947
1405.1216,0.64978
1404.1572,0.65001
1403.1928,0.65012
1402.2284,0.6502
1401.264,0.65028
1400.2996,0.65005
1399.3352,0.64943
1398.3708,0.6489
1397.4064,0.64832
1396.442,0.64744
1395.4776,0.64645
1394.5132,0.64534
1393.5488,0.64381
1392.5844,0.64182
1391.62,0.63979
1390.6556,0.63734
1389.6913,0.63378
1388.7269,0.62923
1387.7625,0.6246
1386.7981,0.62004
1385.8337,0.61492
1384.8693,0.60895
1383.9049,0.60229
1382.9405,0.5954
1381.9761,0.58851
1381.0117,0.58178
1380.0473,0.57535
1379.0829,0.56949
1378.1185,0.56479
1377.1541,0.56176
1376.1898,0.56
1375.2253,0.55908
1374.261,0.55905
1373.2966,0.56012
1372.3322,0.56249
1371.3678,0.56616
1370.4034,0.57091
1369.439,0.57615
1368.4746,0.58151
1367.5102,0.58702
1366.5458,0.59242
1365.5814,0.59747
1364.617,0.60194
1363.6526,0.60562
1362.6882,0.60822
1361.7238,0.61124
1360.7595,0.61733
1359.7951,0.62682
1358.8307,0.63619
1357.8663,0.64228
1356.9019,0.64599
1355.9375,0.64909
1354.9731,0.65192
1354.0087,0.65456
1353.0443,0.65713
1352.0799,0.65942
1351.1155,0.66122
1350.1511,0.66229
1349.1867,0.66244
1348.2223,0.66141
1347.2579,0.65869
1346.2936,0.65376
1345.3292,0.64499
1344.3648,0.62969
1343.4004,0.60703
1342.436,0.58568
1341.4716,0.58327
1340.5072,0.60585
1339.5428,0.63811
1338.5784,0.66317
1337.614,0.67683
1336.6496,0.68253
1335.6852,0.68441
1334.7208,0.68456
1333.7564,0.68341
1332.792,0.68139
1331.8276,0.67894
1330.8633,0.67607
1329.8989,0.67259
1328.9345,0.66872
1327.9701,0.66463
1327.0057,0.66061
1326.0413,0.65697
1325.0769,0.6536
1324.1125,0.65043
1323.1481,0.64737
1322.1837,0.64442
1321.2193,0.6414
1320.2549,0.63837
1319.2905,0.63535
1318.3261,0.63244
1317.3617,0.62988
1316.3973,0.62774
1315.4329,0.62578
1314.4686,0.62391
1313.5042,0.62219
1312.5398,0.62112
1311.5754,0.62077
1310.611,0.62058
1309.6466,0.62008
1308.6822,0.61978
1307.7178,0.62008
1306.7534,0.62077
1305.789,0.6215
1304.8246,0.62226
1303.8602,0.62311
1302.8958,0.62433
1301.9314,0.62621
1300.967,0.6282
1300.0026,0.63011
1299.0383,0.63225
1298.0739,0.63462
1297.1095,0.63684
1296.1451,0.63864
1295.1807,0.6404
1294.2163,0.64212
1293.2519,0.64366
1292.2875,0.64503
1291.3231,0.6461
1290.3587,0.64641
1289.3943,0.64626
1288.4299,0.6463
1287.4655,0.64618
1286.5011,0.6458
1285.5367,0.64576
1284.5723,0.64626
1283.608,0.64656
1282.6436,0.6466
1281.6792,0.6471
1280.7148,0.64878
1279.7504,0.65135
1278.786,0.65387
1277.8216,0.65544
1276.8572,0.65559
1275.8928,0.65456
1274.9284,0.65295
1273.964,0.65096
1272.9996,0.64878
1272.0352,0.64649
1271.0708,0.64381
1270.1064,0.64098
1269.142,0.63826
1268.1777,0.63558
1267.2133,0.63283
1266.2489,0.6303
1265.2845,0.62797
1264.3201,0.62536
1263.3557,0.62276
1262.3913,0.62058
1261.4269,0.61874
1260.4625,0.61679
1259.4981,0.61457
1258.5337,0.61251
1257.5693,0.61113
1256.6049,0.61044
1255.6405,0.60975
1254.6762,0.60868
1253.7117,0.60749
1252.7474,0.60654
1251.783,0.60558
1250.8186,0.60462
1249.8542,0.60401
1248.8898,0.60351
1247.9254,0.60248
1246.961,0.60076
1245.9966,0.59823
1245.0322,0.59479
1244.0678,0.59092
1243.1034,0.58817
1242.139,0.58775
1241.1746,0.5892
1240.2102,0.59108
1239.2459,0.5923
1238.2815,0.59268
1237.3171,0.59287
1236.3527,0.59398
1235.3883,0.59617
1234.4239,0.5985
1233.4595,0.60034
1232.4951,0.60187
1231.5307,0.60332
1230.5663,0.60474
1229.6019,0.60592
1228.6375,0.60703
1227.6731,0.60849
1226.7087,0.61044
1225.7443,0.61224
1224.7799,0.613
1223.8156,0.61377
1222.8512,0.61572
1221.8868,0.61813
1220.9224,0.62012
1219.958,0.62184
1218.9936,0.62376
1218.0292,0.62567
1217.0648,0.6272
1216.1004,0.62842
1215.136,0.62938
1214.1716,0.63045
1213.2072,0.63195
1212.2428,0.63367
1211.2784,0.63501
1210.314,0.63577
1209.3497,0.63619
1208.3853,0.6365
1207.4209,0.63719
1206.4565,0.63868
1205.4921,0.64036
1204.5277,0.64182
1203.5633,0.64373
1202.5989,0.64672
1201.6345,0.65039
1200.6701,0.65448
1199.7057,0.65889
1198.7413,0.66313
1197.7769,0.66711
1196.8125,0.67086
1195.8481,0.67473
1194.8837,0.67863
1193.9193,0.68234
1192.955,0.68606
1191.9906,0.68996
1191.0262,0.69325
1190.0618,0.69539
1189.0974,0.69708
1188.133,0.69868
1187.1686,0.69995
1186.2042,0.70067
1185.2398,0.70064
1184.2754,0.69998
1183.311,0.69937
1182.3466,0.6991
1181.3822,0.69842
1180.4178,0.69662
1179.4534,0.69409
1178.489,0.69149
1177.5247,0.68862
1176.5603,0.68529
1175.5959,0.68169
1174.6315,0.67802
1173.6671,0.67423
1172.7027,0.67029
1171.7383,0.666
1170.7739,0.6613
1169.8095,0.65613
1168.8451,0.65058
1167.8807,0.64484
1166.9163,0.63895
1165.9519,0.63279
1164.9875,0.62605
1164.0231,0.61901
1163.0587,0.61216
1162.0944,0.60546
1161.13,0.59877
1160.1656,0.59234
1159.2012,0.58599
1158.2368,0.57944
1157.2724,0.5729
1156.308,0.56643
1155.3436,0.55943
1154.3792,0.5517
1153.4148,0.54489
1152.4504,0.54114
1151.486,0.54095
1150.5216,0.54351
1149.5572,0.54734
1148.5928,0.55063
1147.6284,0.55269
1146.6641,0.55449
1145.6997,0.55725
1144.7353,0.56142
1143.7709,0.56632
1142.8065,0.57053
1141.8421,0.57275
1140.8777,0.57275
1139.9133,0.5716
1138.9489,0.56995
1137.9845,0.56743
1137.0201,0.56425
1136.0557,0.56092
1135.0913,0.55713
1134.1269,0.55327
1133.1626,0.54986
1132.1981,0.54596
1131.2338,0.54022
1130.2694,0.53287
1129.305,0.52503
1128.3406,0.51741
1127.3762,0.51037
1126.4118,0.50432
1125.4474,0.49939
1124.483,0.49548
1123.5186,0.49281
1122.5542,0.49074
1121.5898,0.48783
1120.6254,0.48347
1119.661,0.47792
1118.6966,0.47218
1117.7323,0.46743
1116.7678,0.46422
1115.8035,0.46189
1114.8391,0.45944
1113.8747,0.4563
1112.9103,0.45209
1111.9459,0.44646
1110.9815,0.43958
1110.0171,0.43223
1109.0527,0.42435
1108.0883,0.41528
1107.1239,0.40464
1106.1595,0.39167
1105.1951,0.37598
1104.2307,0.35876
1103.2663,0.34176
1102.302,0.3252
1101.3376,0.30889
1100.3732,0.2942
1099.4088,0.28249
1098.4444,0.2735
1097.48,0.26676
1096.5156,0.26167
1095.5512,0.25819
1094.5868,0.25681
1093.6224,0.25708
1092.658,0.2583
1091.6936,0.26018
1090.7292,0.26156
1089.7648,0.26205
1088.8004,0.26228
1087.836,0.26194
1086.8717,0.26049
1085.9073,0.25872
1084.9429,0.25723
1083.9785,0.25501
1083.0141,0.25111
1082.0497,0.24568
1081.0853,0.23959
1080.1209,0.23312
1079.1565,0.22658
1078.1921,0.22057
1077.2277,0.21468
1076.2633,0.20829
1075.2989,0.20117
1074.3345,0.19398
1073.3701,0.18755
1072.4057,0.18181
1071.4414,0.17622
1070.477,0.17083
1069.5126,0.16593
1068.5482,0.16137
1067.5838,0.15663
1066.6194,0.1515
1065.655,0.14656
1064.6906,0.14274
1063.7262,0.14071
1062.7618,0.14036
1061.7974,0.14094
1060.833,0.14128
1059.8686,0.1401
1058.9042,0.13646
1057.9398,0.1311
1056.9754,0.12525
1056.0111,0.11966
1055.0467,0.11503
1054.0823,0.11128
1053.1179,0.10734
1052.1535,0.10313
1051.1891,0.09938
1050.2247,0.096013
1049.2603,0.092798
1048.2959,0.089698
1047.3315,0.086101
1046.3671,0.081318
1045.4027,0.07619
1044.4383,0.072096
1043.4739,0.068843
1042.5095,0.065207
1041.5451,0.060845
1040.5808,0.056329
1039.6164,0.051623
1038.652,0.046839
1037.6876,0.042553
1036.7232,0.038612
1035.7588,0.034479
1034.7944,0.030078
1033.83,0.025754
1032.8656,0.021698
1031.9012,0.017718
1030.9368,0.013432
1029.9724,0.0096433
1029.008,0.0070029
1028.0436,0.0048982
1027.0792,0.0032144
1026.1148,0.002143
1025.1505,0.0010332
1024.1861,0
1023.2217,0.0002296
1022.2573,0.0018751
1021.2929,0.0034823
1020.3285,0.0046686
1019.3641,0.0064289
1018.3997,0.0083805
1017.4353,0.0099495
1016.4709,0.012016
1015.5065,0.014656
1014.5421,0.017105
1013.5777,0.019363
1012.6133,0.021621
1011.649,0.023955
1010.6845,0.02629
1009.7202,0.028547
1008.7558,0.031035
1007.7914,0.033675
1006.827,0.036239
1005.8626,0.039033
1004.8982,0.0424
1003.9338,0.045806
1002.9694,0.048791
1002.005,0.051508
1001.0406,0.054531
1000.0762,0.058243
999.11183,0.062223
998.14743,0.065667
997.18304,0.068805
996.21865,0.072019
995.25425,0.075386
994.28986,0.078831
993.32547,0.082083
992.36107,0.08568
991.39668,0.090311
990.43229,0.095362
989.46789,0.10018
988.5035,0.10512
987.5391,0.11044
986.57471,0.11641
985.61032,0.12284
984.64592,0.12911
983.68153,0.13535
982.71714,0.14193
981.75274,0.14882
980.78835,0.15594
979.82396,0.16313
978.85956,0.16998
977.89517,0.1766
976.93077,0.18345
975.96638,0.19034
975.00199,0.19689
974.03759,0.20289
973.0732,0.20844
972.10881,0.21311
971.14441,0.21675
970.18002,0.21965
969.21563,0.22187
968.25123,0.2226
967.28684,0.2213
966.32244,0.2187
965.35805,0.21621
964.39366,0.21533
963.42926,0.21736
962.46487,0.22275
961.50048,0.23068
960.53608,0.23951
959.57169,0.24812
958.6073,0.25612
957.6429,0.2632
956.67851,0.26944
955.71411,0.27564
954.74972,0.28134
953.78533,0.28555
952.82093,0.28884
951.85654,0.29282
950.89215,0.29726
949.92775,0.30128
948.96336,0.30549
947.99896,0.31039
947.03457,0.31517
946.07018,0.31965
945.10578,0.32435
944.14139,0.32948
943.177,0.33488
942.2126,0.34031
941.24821,0.34536
940.28382,0.34992
939.31942,0.35397
938.35503,0.35791
937.39063,0.36212
936.42624,0.36637
935.46185,0.37058
934.49745,0.3759
933.53306,0.38229
932.56867,0.38803
931.60427,0.39239
930.63988,0.39576
929.67549,0.39878
928.71109,0.4023
927.7467,0.40647
926.7823,0.41072
925.81791,0.41489
924.85352,0.41861
923.88912,0.42144
922.92473,0.42385
921.96034,0.4263
920.99594,0.42947
920.03155,0.43353
919.06716,0.43751
918.10276,0.44061
917.13837,0.44329
916.17397,0.446
915.20958,0.44822
914.24519,0.44995
913.28079,0.45197
912.3164,0.45389
911.35201,0.45427
910.38761,0.45312
909.42322,0.45113
908.45882,0.44903
907.49443,0.44769
906.53004,0.44662
905.56564,0.4447
904.60125,0.4416
903.63686,0.43797
902.67246,0.43456
901.70807,0.43162
900.74368,0.42928
899.77928,0.42779
898.81489,0.42668
897.85049,0.42542
896.8861,0.42484
895.92171,0.42507
894.95731,0.42511
893.99292,0.4253
893.02853,0.42634
892.06413,0.42833
891.09974,0.43123
890.13535,0.43445
889.17095,0.4372
888.20656,0.43977
887.24216,0.44279
886.27777,0.447
885.31338,0.45209
884.34898,0.4566
883.38459,0.46051
882.4202,0.46483
881.4558,0.4695
880.49141,0.47383
879.52702,0.47754
878.56262,0.48129
877.59823,0.48538
876.63383,0.48951
875.66944,0.49365
874.70505,0.49747
873.74065,0.50034
872.77626,0.50298
871.81187,0.50628
870.84747,0.50892
869.88308,0.51075
868.91868,0.51278
867.95429,0.5145
866.9899,0.5155
866.0255,0.51611
865.06111,0.51676
864.09672,0.51745
863.13232,0.51772
862.16793,0.51764
861.20354,0.51745
860.23914,0.51722
859.27475,0.51711
858.31035,0.51718
857.34596,0.51737
856.38157,0.51791
855.41717,0.5186
854.45278,0.51822
853.48839,0.51623
852.52399,0.51343
851.5596,0.5106
850.59521,0.50762
849.63081,0.50448
848.66642,0.50138
847.70202,0.49935
846.73763,0.49996
845.77324,0.50329
844.80884,0.50991
843.84445,0.52124
842.88006,0.53475
841.91566,0.54577
840.95127,0.55105
839.98688,0.54948
839.02248,0.54259
838.05809,0.53364
837.09369,0.52522
836.1293,0.51871
835.16491,0.51527
834.20051,0.51462
833.23612,0.51458
832.27173,0.51374
831.30733,0.5127
830.34294,0.51213
829.37855,0.51186
828.41415,0.51217
827.44976,0.51267
826.48536,0.51167
825.52097,0.50957
824.55658,0.50842
823.59218,0.50811
822.62779,0.50712
821.6634,0.50597
820.699,0.5057
819.73461,0.50555
818.77021,0.50463
817.80582,0.50298
816.84143,0.50134
815.87703,0.50054
814.91264,0.50008
813.94825,0.49889
812.98385,0.49713
812.01946,0.49556
811.05507,0.49441
810.09067,0.49353
809.12628,0.49323
808.16188,0.49311
807.19749,0.49242
806.2331,0.49131
805.2687,0.49082
804.30431,0.49089
803.33992,0.49062
802.37552,0.48948
801.41113,0.4881
800.44674,0.48707
799.48234,0.48592
798.51795,0.48462
797.55355,0.48381
796.58916,0.48358
795.62477,0.48332
794.66037,0.48335
793.69598,0.48351
792.73159,0.48263
791.76719,0.48068
790.8028,0.47903
789.83841,0.47846
788.87401,0.47842
787.90962,0.47769
786.94522,0.47631
785.98083,0.47574
785.01644,0.47582
784.05204,0.47459
783.08765,0.47218
782.12326,0.47046
781.15886,0.47011
780.19447,0.47073
779.23007,0.47061
778.26568,0.46843
777.30129,0.46552
776.33689,0.46323
775.3725,0.46177
774.40811,0.46108
773.44371,0.46074
772.47932,0.46001
771.51493,0.45852
770.55053,0.45691
769.58614,0.45572
768.62174,0.45412
767.65735,0.45144
766.69296,0.44903
765.72856,0.44761
764.76417,0.4462
763.79978,0.44386
762.83538,0.44076
761.87099,0.43789
760.9066,0.43567
759.9422,0.4343
758.97781,0.43307
758.01341,0.43062
757.04902,0.4276
756.08463,0.42534
755.12023,0.42331
754.15584,0.4209
753.19145,0.41864
752.22705,0.41692
751.26266,0.41516
750.29827,0.41275
749.33387,0.40988
748.36948,0.40774
747.40508,0.40678
746.44069,0.40559
745.4763,0.4041
744.5119,0.4038
743.54751,0.40418
742.58312,0.40353
741.61872,0.40165
740.65433,0.39951
739.68993,0.39829
738.72554,0.39806
737.76115,0.39767
736.79675,0.39668
735.83236,0.39572
734.86797,0.39499
733.90357,0.39434
732.93918,0.3935
731.97479,0.39174
731.01039,0.38922
730.046,0.38772
729.0816,0.38746
728.11721,0.38677
727.15282,0.38535
726.18842,0.38332
725.22403,0.38041
724.25964,0.37743
723.29524,0.37479
722.33085,0.37215
721.36646,0.36978
720.40206,0.36821
719.43767,0.3674
718.47327,0.36641
717.50888,0.36407
716.54449,0.36063
715.58009,0.35742
714.6157,0.35485
713.65131,0.35152
712.68691,0.34735
711.72252,0.34467
710.75813,0.34391
709.79373,0.34238
708.82934,0.3387
707.86494,0.33411
706.90055,0.3299
705.93616,0.32615
704.97176,0.32321
704.00737,0.32217
703.04298,0.32236
702.07858,0.32152
701.11419,0.31957
700.14979,0.31716
699.1854,0.31448
698.22101,0.31238
697.25661,0.31065
696.29222,0.30859
695.32783,0.30702
694.36343,0.30618
693.39904,0.30537
692.43465,0.3038
691.47025,0.30051
690.50586,0.29619
689.54146,0.29313
688.57707,0.29217
687.61268,0.2919
686.64828,0.29152
685.68389,0.29098
684.7195,0.28972
683.7551,0.28811
682.79071,0.28746
681.82632,0.28723
680.86192,0.28624
679.89753,0.28513
678.93313,0.28478
677.96874,0.2839
677.00435,0.28146
676.03995,0.2782
675.07556,0.27614
674.11117,0.27587
673.14677,0.27598
672.18238,0.27491
671.21799,0.2722
670.25359,0.26921
669.2892,0.26688
668.3248,0.26443
667.36041,0.26163
666.39602,0.25961
665.43162,0.25953
664.46723,0.26102
663.50284,0.26202
662.53844,0.26156
661.57405,0.25957
660.60966,0.25593
659.64526,0.25279
658.68087,0.25276
657.71647,0.25333
656.75208,0.25099
655.78769,0.24893
654.82329,0.24989
653.8589,0.25061
652.89451,0.24996
651.93011,0.25011
650.96572,0.25031
650.00132,0.24816
649.03693,0.24445
648.07254,0.24139
647.10814,0.23879
646.14375,0.23649
645.17936,0.23481
644.21496,0.23263
643.25057,0.22819
642.28618,0.22187
641.32178,0.2182
640.35739,0.21985
639.39299,0.22088
638.4286,0.21636
637.46421,0.21162
636.49981,0.20852
635.53542,0.20373
634.57103,0.20056
633.60663,0.20056
632.64224,0.19945
631.67785,0.19639
630.71345,0.19348
629.74906,0.19279
628.78466,0.1921
627.82027,0.18904
626.85588,0.18399
625.89148,0.17412
624.92709,0.16375
623.9627,0.16539
622.9983,0.17465
622.03391,0.17683
621.06952,0.17415
620.10512,0.17021
619.14073,0.1585
618.17633,0.14855
617.21194,0.14802
616.24755,0.13845
615.28315,0.12165
614.31876,0.12356
613.35437,0.13726
612.38997,0.14067
611.42558,0.14121
610.46118,0.14729
609.49679,0.15169
608.5324,0.15204
607.568,0.14522
606.60361,0.1282
605.63922,0.11511
604.67482,0.11411
603.71043,0.11427
602.74604,0.11331
601.78164,0.11281
600.81725,0.10803
599.85285,0.10612
