Velocity,NormIntensity
mm/s,a.u.
-9.991,0.99995
-9.9789,0.99995
-9.9667,0.99995
-9.9546,0.99995
-9.9425,0.99995
-9.9304,0.99995
-9.9183,0.99995
-9.9061,0.99995
-9.894,0.99995
-9.8819,0.99995
-9.8697,0.99995
-9.8576,0.99995
-9.8455,0.99995
-9.8334,0.99995
-9.8212,0.99995
-9.8091,0.99995
-9.797,0.99995
-9.7849,0.99995
-9.7728,0.99995
-9.7606,0.99995
-9.7485,0.99995
-9.7364,0.99994
-9.7242,0.99994
-9.7121,0.99994
-9.7,0.99994
-9.6879,0.99994
-9.6758,0.99994
-9.6636,0.99994
-9.6515,0.99994
-9.6394,0.99994
-9.6273,0.99994
-9.6151,0.99994
-9.603,0.99994
-9.5909,0.99994
-9.5787,0.99994
-9.5666,0.99994
-9.5545,0.99994
-9.5424,0.99994
-9.5303,0.99994
-9.5181,0.99994
-9.506,0.99994
-9.4939,0.99994
-9.4817,0.99993
-9.4696,0.99993
-9.4575,0.99993
-9.4454,0.99993
-9.4332,0.99993
-9.4211,0.99993
-9.409,0.99993
-9.3969,0.99993
-9.3848,0.99993
-9.3726,0.99993
-9.3605,0.99993
-9.3484,0.99993
-9.3362,0.99993
-9.3241,0.99993
-9.312,0.99993
-9.2999,0.99993
-9.2878,0.99993
-9.2756,0.99993
-9.2635,0.99993
-9.2514,0.99992
-9.2393,0.99992
-9.2271,0.99992
-9.215,0.99992
-9.2029,0.99992
-9.1907,0.99992
-9.1786,0.99992
-9.1665,0.99992
-9.1544,0.99992
-9.1423,0.99992
-9.1301,0.99992
-9.118,0.99992
-9.1059,0.99992
-9.0938,0.99992
-9.0816,0.99992
-9.0695,0.99992
-9.0574,0.99992
-9.0452,0.99992
-9.0331,0.99991
-9.021,0.99991
-9.0089,0.99991
-8.9968,0.99991
-8.9846,0.99991
-8.9725,0.99991
-8.9604,0.99991
-8.9482,0.99991
-8.9361,0.99991
-8.924,0.99991
-8.9119,0.99991
-8.8997,0.99991
-8.8876,0.99991
-8.8755,0.99991
-8.8634,0.99991
-8.8513,0.99991
-8.8391,0.99991
-8.827,0.9999
-8.8149,0.9999
-8.8027,0.9999
-8.7906,0.9999
-8.7785,0.9999
-8.7664,0.9999
-8.7543,0.9999
-8.7421,0.9999
-8.73,0.9999
-8.7179,0.9999
-8.7058,0.9999
-8.6936,0.9999
-8.6815,0.9999
-8.6694,0.9999
-8.6572,0.9999
-8.6451,0.9999
-8.633,0.99989
-8.6209,0.99989
-8.6088,0.99989
-8.5966,0.99989
-8.5845,0.99989
-8.5724,0.99989
-8.5602,0.99989
-8.5481,0.99989
-8.536,0.99989
-8.5239,0.99989
-8.5117,0.99989
-8.4996,0.99989
-8.4875,0.99989
-8.4754,0.99989
-8.4633,0.99988
-8.4511,0.99988
-8.439,0.99988
-8.4269,0.99988
-8.4147,0.99988
-8.4026,0.99988
-8.3905,0.99988
-8.3784,0.99988
-8.3663,0.99988
-8.3541,0.99988
-8.342,0.99988
-8.3299,0.99988
-8.3178,0.99988
-8.3056,0.99988
-8.2935,0.99987
-8.2814,0.99987
-8.2692,0.99987
-8.2571,0.99987
-8.245,0.99987
-8.2329,0.99987
-8.2208,0.99987
-8.2086,0.99987
-8.1965,0.99987
-8.1844,0.99987
-8.1723,0.99987
-8.1601,0.99987
-8.148,0.99987
-8.1359,0.99986
-8.1237,0.99986
-8.1116,0.99986
-8.0995,0.99986
-8.0874,0.99986
-8.0753,0.99986
-8.0631,0.99986
-8.051,0.99986
-8.0389,0.99986
-8.0267,0.99986
-8.0146,0.99986
-8.0025,0.99986
-7.9904,0.99986
-7.9783,0.99985
-7.9661,0.99985
-7.954,0.99985
-7.9419,0.99985
-7.9298,0.99985
-7.9176,0.99985
-7.9055,0.99985
-7.8934,0.99985
-7.8812,0.99985
-7.8691,0.99985
-7.857,0.99985
-7.8449,0.99984
-7.8327,0.99984
-7.8206,0.99984
-7.8085,0.99984
-7.7964,0.99984
-7.7843,0.99984
-7.7721,0.99984
-7.76,0.99984
-7.7479,0.99984
-7.7358,0.99984
-7.7236,0.99984
-7.7115,0.99983
-7.6994,0.99983
-7.6872,0.99983
-7.6751,0.99983
-7.663,0.99983
-7.6509,0.99983
-7.6387,0.99983
-7.6266,0.99983
-7.6145,0.99983
-7.6024,0.99983
-7.5903,0.99983
-7.5781,0.99982
-7.566,0.99982
-7.5539,0.99982
-7.5418,0.99982
-7.5296,0.99982
-7.5175,0.99982
-7.5054,0.99982
-7.4932,0.99982
-7.4811,0.99982
-7.469,0.99982
-7.4569,0.99981
-7.4447,0.99981
-7.4326,0.99981
-7.4205,0.99981
-7.4084,0.99981
-7.3963,0.99981
-7.3841,0.99981
-7.372,0.99981
-7.3599,0.99981
-7.3477,0.9998
-7.3356,0.9998
-7.3235,0.9998
-7.3114,0.9998
-7.2992,0.9998
-7.2871,0.9998
-7.275,0.9998
-7.2629,0.9998
-7.2508,0.9998
-7.2386,0.99979
-7.2265,0.99979
-7.2144,0.99979
-7.2023,0.99979
-7.1901,0.99979
-7.178,0.99979
-7.1659,0.99979
-7.1537,0.99979
-7.1416,0.99979
-7.1295,0.99978
-7.1174,0.99978
-7.1052,0.99978
-7.0931,0.99978
-7.081,0.99978
-7.0689,0.99978
-7.0568,0.99978
-7.0446,0.99978
-7.0325,0.99978
-7.0204,0.99977
-7.0083,0.99977
-6.9961,0.99977
-6.984,0.99977
-6.9719,0.99977
-6.9597,0.99977
-6.9476,0.99977
-6.9355,0.99976
-6.9234,0.99976
-6.9112,0.99976
-6.8991,0.99976
-6.887,0.99976
-6.8749,0.99976
-6.8628,0.99976
-6.8506,0.99976
-6.8385,0.99975
-6.8264,0.99975
-6.8143,0.99975
-6.8021,0.99975
-6.79,0.99975
-6.7779,0.99975
-6.7657,0.99975
-6.7536,0.99975
-6.7415,0.99974
-6.7294,0.99974
-6.7172,0.99974
-6.7051,0.99974
-6.693,0.99974
-6.6809,0.99974
-6.6688,0.99974
-6.6566,0.99973
-6.6445,0.99973
-6.6324,0.99973
-6.6203,0.99973
-6.6081,0.99973
-6.596,0.99973
-6.5839,0.99972
-6.5717,0.99972
-6.5596,0.99972
-6.5475,0.99972
-6.5354,0.99972
-6.5232,0.99972
-6.5111,0.99972
-6.499,0.99971
-6.4869,0.99971
-6.4748,0.99971
-6.4626,0.99971
-6.4505,0.99971
-6.4384,0.99971
-6.4262,0.9997
-6.4141,0.9997
-6.402,0.9997
-6.3899,0.9997
-6.3777,0.9997
-6.3656,0.9997
-6.3535,0.99969
-6.3414,0.99969
-6.3293,0.99969
-6.3171,0.99969
-6.305,0.99969
-6.2929,0.99969
-6.2808,0.99968
-6.2686,0.99968
-6.2565,0.99968
-6.2444,0.99968
-6.2322,0.99968
-6.2201,0.99968
-6.208,0.99967
-6.1959,0.99967
-6.1837,0.99967
-6.1716,0.99967
-6.1595,0.99967
-6.1474,0.99967
-6.1353,0.99966
-6.1231,0.99966
-6.111,0.99966
-6.0989,0.99966
-6.0868,0.99966
-6.0746,0.99965
-6.0625,0.99965
-6.0504,0.99965
-6.0382,0.99965
-6.0261,0.99965
-6.014,0.99964
-6.0019,0.99964
-5.9897,0.99964
-5.9776,0.99964
-5.9655,0.99964
-5.9534,0.99963
-5.9413,0.99963
-5.9291,0.99963
-5.917,0.99963
-5.9049,0.99963
-5.8928,0.99962
-5.8806,0.99962
-5.8685,0.99962
-5.8564,0.99962
-5.8442,0.99962
-5.8321,0.99961
-5.82,0.99961
-5.8079,0.99961
-5.7957,0.99961
-5.7836,0.9996
-5.7715,0.9996
-5.7594,0.9996
-5.7473,0.9996
-5.7351,0.9996
-5.723,0.99959
-5.7109,0.99959
-5.6988,0.99959
-5.6866,0.99959
-5.6745,0.99958
-5.6624,0.99958
-5.6502,0.99958
-5.6381,0.99958
-5.626,0.99957
-5.6139,0.99957
-5.6018,0.99957
-5.5896,0.99957
-5.5775,0.99956
-5.5654,0.99956
-5.5533,0.99956
-5.5411,0.99956
-5.529,0.99955
-5.5169,0.99955
-5.5047,0.99955
-5.4926,0.99955
-5.4805,0.99954
-5.4684,0.99954
-5.4562,0.99954
-5.4441,0.99954
-5.432,0.99953
-5.4199,0.99953
-5.4078,0.99953
-5.3956,0.99953
-5.3835,0.99952
-5.3714,0.99952
-5.3593,0.99952
-5.3471,0.99951
-5.335,0.99951
-5.3229,0.99951
-5.3107,0.99951
-5.2986,0.9995
-5.2865,0.9995
-5.2744,0.9995
-5.2622,0.99949
-5.2501,0.99949
-5.238,0.99949
-5.2259,0.99949
-5.2138,0.99948
-5.2016,0.99948
-5.1895,0.99948
-5.1774,0.99947
-5.1653,0.99947
-5.1531,0.99947
-5.141,0.99946
-5.1289,0.99946
-5.1167,0.99946
-5.1046,0.99945
-5.0925,0.99945
-5.0804,0.99945
-5.0682,0.99944
-5.0561,0.99944
-5.044,0.99944
-5.0319,0.99943
-5.0198,0.99943
-5.0076,0.99943
-4.9955,0.99942
-4.9834,0.99942
-4.9713,0.99942
-4.9591,0.99941
-4.947,0.99941
-4.9349,0.99941
-4.9227,0.9994
-4.9106,0.9994
-4.8985,0.9994
-4.8864,0.99939
-4.8742,0.99939
-4.8621,0.99938
-4.85,0.99938
-4.8379,0.99938
-4.8258,0.99937
-4.8136,0.99937
-4.8015,0.99937
-4.7894,0.99936
-4.7773,0.99936
-4.7651,0.99935
-4.753,0.99935
-4.7409,0.99935
-4.7287,0.99934
-4.7166,0.99934
-4.7045,0.99933
-4.6924,0.99933
-4.6803,0.99932
-4.6681,0.99932
-4.656,0.99932
-4.6439,0.99931
-4.6318,0.99931
-4.6196,0.9993
-4.6075,0.9993
-4.5954,0.99929
-4.5832,0.99929
-4.5711,0.99929
-4.559,0.99928
-4.5469,0.99928
-4.5347,0.99927
-4.5226,0.99927
-4.5105,0.99926
-4.4984,0.99926
-4.4863,0.99925
-4.4741,0.99925
-4.462,0.99924
-4.4499,0.99924
-4.4378,0.99923
-4.4256,0.99923
-4.4135,0.99922
-4.4014,0.99922
-4.3892,0.99921
-4.3771,0.99921
-4.365,0.9992
-4.3529,0.9992
-4.3407,0.99919
-4.3286,0.99919
-4.3165,0.99918
-4.3044,0.99918
-4.2923,0.99917
-4.2801,0.99917
-4.268,0.99916
-4.2559,0.99915
-4.2438,0.99915
-4.2316,0.99914
-4.2195,0.99914
-4.2074,0.99913
-4.1952,0.99913
-4.1831,0.99912
-4.171,0.99911
-4.1589,0.99911
-4.1467,0.9991
-4.1346,0.99909
-4.1225,0.99909
-4.1104,0.99908
-4.0983,0.99908
-4.0861,0.99907
-4.074,0.99906
-4.0619,0.99906
-4.0498,0.99905
-4.0376,0.99904
-4.0255,0.99904
-4.0134,0.99903
-4.0012,0.99902
-3.9891,0.99902
-3.977,0.99901
-3.9649,0.999
-3.9527,0.999
-3.9406,0.99899
-3.9285,0.99898
-3.9164,0.99897
-3.9043,0.99897
-3.8921,0.99896
-3.88,0.99895
-3.8679,0.99894
-3.8558,0.99894
-3.8436,0.99893
-3.8315,0.99892
-3.8194,0.99891
-3.8072,0.99891
-3.7951,0.9989
-3.783,0.99889
-3.7709,0.99888
-3.7588,0.99887
-3.7466,0.99886
-3.7345,0.99886
-3.7224,0.99885
-3.7102,0.99884
-3.6981,0.99883
-3.686,0.99882
-3.6739,0.99881
-3.6618,0.9988
-3.6496,0.9988
-3.6375,0.99879
-3.6254,0.99878
-3.6132,0.99877
-3.6011,0.99876
-3.589,0.99875
-3.5769,0.99874
-3.5648,0.99873
-3.5526,0.99872
-3.5405,0.99871
-3.5284,0.9987
-3.5162,0.99869
-3.5041,0.99868
-3.492,0.99867
-3.4799,0.99866
-3.4678,0.99865
-3.4556,0.99864
-3.4435,0.99863
-3.4314,0.99862
-3.4192,0.9986
-3.4071,0.99859
-3.395,0.99858
-3.3829,0.99857
-3.3708,0.99856
-3.3586,0.99855
-3.3465,0.99853
-3.3344,0.99852
-3.3222,0.99851
-3.3101,0.9985
-3.298,0.99849
-3.2859,0.99847
-3.2738,0.99846
-3.2616,0.99845
-3.2495,0.99844
-3.2374,0.99842
-3.2252,0.99841
-3.2131,0.9984
-3.201,0.99838
-3.1889,0.99837
-3.1768,0.99835
-3.1646,0.99834
-3.1525,0.99833
-3.1404,0.99831
-3.1282,0.9983
-3.1161,0.99828
-3.104,0.99827
-3.0919,0.99825
-3.0798,0.99824
-3.0676,0.99822
-3.0555,0.9982
-3.0434,0.99819
-3.0312,0.99817
-3.0191,0.99816
-3.007,0.99814
-2.9949,0.99812
-2.9827,0.99811
-2.9706,0.99809
-2.9585,0.99807
-2.9464,0.99805
-2.9343,0.99804
-2.9221,0.99802
-2.91,0.998
-2.8979,0.99798
-2.8857,0.99796
-2.8736,0.99794
-2.8615,0.99792
-2.8494,0.9979
-2.8373,0.99788
-2.8251,0.99786
-2.813,0.99784
-2.8009,0.99782
-2.7887,0.9978
-2.7766,0.99778
-2.7645,0.99776
-2.7524,0.99774
-2.7403,0.99771
-2.7281,0.99769
-2.716,0.99767
-2.7039,0.99765
-2.6917,0.99762
-2.6796,0.9976
-2.6675,0.99757
-2.6554,0.99755
-2.6433,0.99752
-2.6311,0.9975
-2.619,0.99747
-2.6069,0.99745
-2.5947,0.99742
-2.5826,0.99739
-2.5705,0.99736
-2.5584,0.99734
-2.5463,0.99731
-2.5341,0.99728
-2.522,0.99725
-2.5099,0.99722
-2.4977,0.99719
-2.4856,0.99716
-2.4735,0.99713
-2.4614,0.9971
-2.4493,0.99707
-2.4371,0.99703
-2.425,0.997
-2.4129,0.99697
-2.4007,0.99693
-2.3886,0.9969
-2.3765,0.99686
-2.3644,0.99682
-2.3523,0.99679
-2.3401,0.99675
-2.328,0.99671
-2.3159,0.99667
-2.3037,0.99663
-2.2916,0.99659
-2.2795,0.99655
-2.2674,0.99651
-2.2553,0.99647
-2.2431,0.99643
-2.231,0.99638
-2.2189,0.99634
-2.2067,0.99629
-2.1946,0.99624
-2.1825,0.9962
-2.1704,0.99615
-2.1582,0.9961
-2.1461,0.99605
-2.134,0.996
-2.1219,0.99595
-2.1098,0.99589
-2.0976,0.99584
-2.0855,0.99578
-2.0734,0.99573
-2.0612,0.99567
-2.0491,0.99561
-2.037,0.99555
-2.0249,0.99549
-2.0128,0.99543
-2.0006,0.99536
-1.9885,0.9953
-1.9764,0.99523
-1.9643,0.99516
-1.9521,0.99509
-1.94,0.99502
-1.9279,0.99495
-1.9158,0.99488
-1.9036,0.9948
-1.8915,0.99472
-1.8794,0.99464
-1.8673,0.99456
-1.8551,0.99448
-1.843,0.99439
-1.8309,0.9943
-1.8188,0.99421
-1.8066,0.99412
-1.7945,0.99403
-1.7824,0.99393
-1.7703,0.99383
-1.7581,0.99373
-1.746,0.99363
-1.7339,0.99352
-1.7217,0.99341
-1.7096,0.9933
-1.6975,0.99318
-1.6854,0.99306
-1.6732,0.99294
-1.6611,0.99281
-1.649,0.99268
-1.6369,0.99255
-1.6247,0.99241
-1.6126,0.99227
-1.6005,0.99213
-1.5884,0.99198
-1.5762,0.99182
-1.5641,0.99166
-1.552,0.9915
-1.5399,0.99133
-1.5277,0.99115
-1.5156,0.99097
-1.5035,0.99079
-1.4914,0.99059
-1.4792,0.99039
-1.4671,0.99019
-1.455,0.98997
-1.4429,0.98975
-1.4307,0.98952
-1.4186,0.98928
-1.4065,0.98903
-1.3944,0.98878
-1.3822,0.98851
-1.3701,0.98823
-1.358,0.98794
-1.3459,0.98764
-1.3337,0.98732
-1.3216,0.98699
-1.3095,0.98665
-1.2974,0.98629
-1.2853,0.98591
-1.2731,0.98552
-1.261,0.9851
-1.2489,0.98467
-1.2368,0.98421
-1.2246,0.98373
-1.2125,0.98322
-1.2004,0.98268
-1.1883,0.98211
-1.1761,0.9815
-1.164,0.98085
-1.1519,0.98016
-1.1398,0.97942
-1.1276,0.97862
-1.1155,0.97776
-1.1034,0.97682
-1.0913,0.9758
-1.0791,0.97468
-1.067,0.97344
-1.0549,0.97204
-1.0428,0.97048
-1.0306,0.96871
-1.0185,0.96669
-1.0064,0.96441
-0.99425,0.96184
-0.98213,0.95897
-0.97,0.95578
-0.95788,0.95226
-0.94575,0.94837
-0.93363,0.94411
-0.9215,0.93945
-0.90938,0.93436
-0.89725,0.92879
-0.88513,0.92272
-0.873,0.9161
-0.86087,0.90889
-0.84875,0.90105
-0.83662,0.89252
-0.8245,0.88327
-0.81237,0.87325
-0.80025,0.86242
-0.78812,0.85075
-0.776,0.83819
-0.76387,0.82472
-0.75175,0.8103
-0.73962,0.79493
-0.7275,0.77858
-0.71537,0.76125
-0.70325,0.74294
-0.69112,0.72366
-0.679,0.70344
-0.66687,0.68231
-0.65475,0.6603
-0.64263,0.63747
-0.6305,0.6139
-0.61838,0.58964
-0.60625,0.5648
-0.59413,0.53948
-0.582,0.51378
-0.56988,0.48783
-0.55775,0.46175
-0.54563,0.4357
-0.5335,0.40981
-0.52138,0.38424
-0.50925,0.35914
-0.49712,0.33468
-0.485,0.31102
-0.47287,0.28831
-0.46075,0.26672
-0.44862,0.24641
-0.4365,0.22751
-0.42438,0.21016
-0.41225,0.1945
-0.40013,0.18064
-0.388,0.16869
-0.37588,0.15873
-0.36375,0.15084
-0.35163,0.14508
-0.3395,0.14147
-0.32738,0.14005
-0.31525,0.14081
-0.30312,0.14373
-0.291,0.14878
-0.27887,0.1559
-0.26675,0.16502
-0.25462,0.17605
-0.2425,0.18888
-0.23037,0.20338
-0.21825,0.21943
-0.20613,0.23686
-0.194,0.25553
-0.18188,0.27525
-0.16975,0.29584
-0.15762,0.31711
-0.1455,0.33886
-0.13337,0.36088
-0.12125,0.38294
-0.10912,0.4048
-0.097,0.42621
-0.084875,0.44687
-0.07275,0.46647
-0.060625,0.48466
-0.0485,0.50105
-0.036375,0.51526
-0.02425,0.52698
-0.012125,0.53597
0,0.54207
0.012125,0.54514
0.02425,0.54509
0.036375,0.5419
0.0485,0.53559
0.060625,0.52628
0.07275,0.51411
0.084875,0.49927
0.097,0.48201
0.10912,0.46258
0.12125,0.44124
0.13337,0.41828
0.1455,0.39398
0.15762,0.36861
0.16975,0.34245
0.18188,0.31577
0.194,0.28882
0.20613,0.26186
0.21825,0.23514
0.23037,0.20888
0.2425,0.18332
0.25462,0.15868
0.26675,0.13518
0.27887,0.11301
0.291,0.092372
0.30312,0.073443
0.31525,0.05639
0.32738,0.041363
0.3395,0.028497
0.35163,0.017911
0.36375,0.0097005
0.37588,0.0039435
0.388,0.00069777
0.40013,0
0.41225,0.0018635
0.42438,0.00628
0.4365,0.013223
0.44862,0.022638
0.46075,0.034457
0.47287,0.048593
0.485,0.064933
0.49712,0.083356
0.50925,0.10372
0.52138,0.12588
0.5335,0.14966
0.54563,0.1749
0.55775,0.20142
0.56988,0.22902
0.582,0.25753
0.59413,0.28676
0.60625,0.31651
0.61838,0.34662
0.6305,0.3769
0.64263,0.40718
0.65475,0.4373
0.66687,0.46711
0.679,0.49648
0.69112,0.52527
0.70325,0.55338
0.71537,0.58069
0.7275,0.60713
0.73962,0.63261
0.75175,0.65708
0.76387,0.68049
0.776,0.7028
0.78812,0.724
0.80025,0.74406
0.81237,0.76298
0.8245,0.78078
0.83662,0.79747
0.84875,0.81308
0.86087,0.82762
0.873,0.84115
0.88513,0.8537
0.89725,0.86531
0.90938,0.87603
0.9215,0.88592
0.93363,0.89503
0.94575,0.90342
0.95788,0.91113
0.97,0.91823
0.98213,0.92476
0.99425,0.93074
1.0064,0.93621
1.0185,0.9412
1.0306,0.94572
1.0428,0.94979
1.0549,0.95344
1.067,0.95671
1.0791,0.95962
1.0913,0.96221
1.1034,0.96452
1.1155,0.96657
1.1276,0.9684
1.1398,0.97004
1.1519,0.97151
1.164,0.97284
1.1761,0.97405
1.1883,0.97515
1.2004,0.97616
1.2125,0.97709
1.2246,0.97795
1.2368,0.97875
1.2489,0.9795
1.261,0.9802
1.2731,0.98086
1.2853,0.98147
1.2974,0.98206
1.3095,0.98261
1.3216,0.98313
1.3337,0.98362
1.3459,0.9841
1.358,0.98454
1.3701,0.98497
1.3822,0.98538
1.3944,0.98576
1.4065,0.98614
1.4186,0.98649
1.4307,0.98683
1.4429,0.98716
1.455,0.98747
1.4671,0.98777
1.4792,0.98806
1.4914,0.98834
1.5035,0.98861
1.5156,0.98887
1.5277,0.98911
1.5399,0.98935
1.552,0.98959
1.5641,0.98981
1.5762,0.99002
1.5884,0.99023
1.6005,0.99043
1.6126,0.99063
1.6247,0.99082
1.6369,0.991
1.649,0.99118
1.6611,0.99135
1.6732,0.99151
1.6854,0.99167
1.6975,0.99183
1.7096,0.99198
1.7217,0.99213
1.7339,0.99227
1.746,0.99241
1.7581,0.99255
1.7703,0.99268
1.7824,0.99281
1.7945,0.99293
1.8066,0.99305
1.8188,0.99317
1.8309,0.99328
1.843,0.9934
1.8551,0.99351
1.8673,0.99361
1.8794,0.99372
1.8915,0.99381
1.9036,0.99391
1.9158,0.99401
1.9279,0.9941
1.94,0.99419
1.9521,0.99428
1.9643,0.99437
1.9764,0.99446
1.9885,0.99454
2.0006,0.99462
2.0128,0.9947
2.0249,0.99478
2.037,0.99485
2.0491,0.99493
2.0612,0.995
2.0734,0.99507
2.0855,0.99514
2.0976,0.99521
2.1098,0.99528
2.1219,0.99534
2.134,0.99541
2.1461,0.99547
2.1582,0.99553
2.1704,0.99559
2.1825,0.99565
2.1946,0.99571
2.2067,0.99576
2.2189,0.99582
2.231,0.99587
2.2431,0.99592
2.2553,0.99598
2.2674,0.99603
2.2795,0.99608
2.2916,0.99613
2.3037,0.99618
2.3159,0.99622
2.328,0.99627
2.3401,0.99632
2.3523,0.99636
2.3644,0.9964
2.3765,0.99645
2.3886,0.99649
2.4007,0.99653
2.4129,0.99657
2.425,0.99661
2.4371,0.99665
2.4493,0.99669
2.4614,0.99673
2.4735,0.99677
2.4856,0.9968
2.4977,0.99684
2.5099,0.99688
2.522,0.99691
2.5341,0.99695
2.5463,0.99698
2.5584,0.99701
2.5705,0.99705
2.5826,0.99708
2.5947,0.99711
2.6069,0.99714
2.619,0.99717
2.6311,0.9972
2.6433,0.99723
2.6554,0.99726
2.6675,0.99729
2.6796,0.99732
2.6917,0.99735
2.7039,0.99738
2.716,0.9974
2.7281,0.99743
2.7403,0.99746
2.7524,0.99748
2.7645,0.99751
2.7766,0.99753
2.7887,0.99756
2.8009,0.99758
2.813,0.99761
2.8251,0.99763
2.8373,0.99765
2.8494,0.99768
2.8615,0.9977
2.8736,0.99772
2.8857,0.99774
2.8979,0.99777
2.91,0.99779
2.9221,0.99781
2.9343,0.99783
2.9464,0.99785
2.9585,0.99787
2.9706,0.99789
2.9827,0.99791
2.9949,0.99793
3.007,0.99795
3.0191,0.99797
3.0312,0.99799
3.0434,0.998
3.0555,0.99802
3.0676,0.99804
3.0798,0.99806
3.0919,0.99808
3.104,0.99809
3.1161,0.99811
3.1282,0.99813
3.1404,0.99814
3.1525,0.99816
3.1646,0.99818
3.1768,0.99819
3.1889,0.99821
3.201,0.99822
3.2131,0.99824
3.2252,0.99826
3.2374,0.99827
3.2495,0.99829
3.2616,0.9983
3.2738,0.99831
3.2859,0.99833
3.298,0.99834
3.3101,0.99836
3.3222,0.99837
3.3344,0.99839
3.3465,0.9984
3.3586,0.99841
3.3708,0.99843
3.3829,0.99844
3.395,0.99845
3.4071,0.99846
3.4192,0.99848
3.4314,0.99849
3.4435,0.9985
3.4556,0.99851
3.4678,0.99853
3.4799,0.99854
3.492,0.99855
3.5041,0.99856
3.5162,0.99857
3.5284,0.99858
3.5405,0.9986
3.5526,0.99861
3.5648,0.99862
3.5769,0.99863
3.589,0.99864
3.6011,0.99865
3.6132,0.99866
3.6254,0.99867
3.6375,0.99868
3.6496,0.99869
3.6618,0.9987
3.6739,0.99871
3.686,0.99872
3.6981,0.99873
3.7102,0.99874
3.7224,0.99875
3.7345,0.99876
3.7466,0.99877
3.7588,0.99878
3.7709,0.99879
3.783,0.9988
3.7951,0.99881
3.8072,0.99881
3.8194,0.99882
3.8315,0.99883
3.8436,0.99884
3.8558,0.99885
3.8679,0.99886
3.88,0.99887
3.8921,0.99887
3.9043,0.99888
3.9164,0.99889
3.9285,0.9989
3.9406,0.99891
3.9527,0.99891
3.9649,0.99892
3.977,0.99893
3.9891,0.99894
4.0012,0.99895
4.0134,0.99895
4.0255,0.99896
4.0376,0.99897
4.0498,0.99898
4.0619,0.99898
4.074,0.99899
4.0861,0.999
4.0983,0.999
4.1104,0.99901
4.1225,0.99902
4.1346,0.99902
4.1467,0.99903
4.1589,0.99904
4.171,0.99904
4.1831,0.99905
4.1952,0.99906
4.2074,0.99906
4.2195,0.99907
4.2316,0.99908
4.2438,0.99908
4.2559,0.99909
4.268,0.9991
4.2801,0.9991
4.2923,0.99911
4.3044,0.99911
4.3165,0.99912
4.3286,0.99913
4.3407,0.99913
4.3529,0.99914
4.365,0.99914
4.3771,0.99915
4.3892,0.99915
4.4014,0.99916
4.4135,0.99917
4.4256,0.99917
4.4378,0.99918
4.4499,0.99918
4.462,0.99919
4.4741,0.99919
4.4863,0.9992
4.4984,0.9992
4.5105,0.99921
4.5226,0.99921
4.5347,0.99922
4.5469,0.99922
4.559,0.99923
4.5711,0.99923
4.5832,0.99924
4.5954,0.99924
4.6075,0.99925
4.6196,0.99925
4.6318,0.99926
4.6439,0.99926
4.656,0.99927
4.6681,0.99927
4.6803,0.99928
4.6924,0.99928
4.7045,0.99929
4.7166,0.99929
4.7287,0.9993
4.7409,0.9993
4.753,0.9993
4.7651,0.99931
4.7773,0.99931
4.7894,0.99932
4.8015,0.99932
4.8136,0.99933
4.8258,0.99933
4.8379,0.99933
4.85,0.99934
4.8621,0.99934
4.8742,0.99935
4.8864,0.99935
4.8985,0.99935
4.9106,0.99936
4.9227,0.99936
4.9349,0.99937
4.947,0.99937
4.9591,0.99937
4.9713,0.99938
4.9834,0.99938
4.9955,0.99938
5.0076,0.99939
5.0198,0.99939
5.0319,0.9994
5.044,0.9994
5.0561,0.9994
5.0682,0.99941
5.0804,0.99941
5.0925,0.99941
5.1046,0.99942
5.1167,0.99942
5.1289,0.99942
5.141,0.99943
5.1531,0.99943
5.1653,0.99943
5.1774,0.99944
5.1895,0.99944
5.2016,0.99944
5.2138,0.99945
5.2259,0.99945
5.238,0.99945
5.2501,0.99946
5.2622,0.99946
5.2744,0.99946
5.2865,0.99947
5.2986,0.99947
5.3107,0.99947
5.3229,0.99948
5.335,0.99948
5.3471,0.99948
5.3593,0.99949
5.3714,0.99949
5.3835,0.99949
5.3956,0.99949
5.4078,0.9995
5.4199,0.9995
5.432,0.9995
5.4441,0.99951
5.4562,0.99951
5.4684,0.99951
5.4805,0.99951
5.4926,0.99952
5.5047,0.99952
5.5169,0.99952
5.529,0.99953
5.5411,0.99953
5.5533,0.99953
5.5654,0.99953
5.5775,0.99954
5.5896,0.99954
5.6018,0.99954
5.6139,0.99954
5.626,0.99955
5.6381,0.99955
5.6502,0.99955
5.6624,0.99955
5.6745,0.99956
5.6866,0.99956
5.6988,0.99956
5.7109,0.99956
5.723,0.99957
5.7351,0.99957
5.7473,0.99957
5.7594,0.99957
5.7715,0.99958
5.7836,0.99958
5.7957,0.99958
5.8079,0.99958
5.82,0.99959
5.8321,0.99959
5.8442,0.99959
5.8564,0.99959
5.8685,0.9996
5.8806,0.9996
5.8928,0.9996
5.9049,0.9996
5.917,0.9996
5.9291,0.99961
5.9413,0.99961
5.9534,0.99961
5.9655,0.99961
5.9776,0.99962
5.9897,0.99962
6.0019,0.99962
6.014,0.99962
6.0261,0.99962
6.0382,0.99963
6.0504,0.99963
6.0625,0.99963
6.0746,0.99963
6.0868,0.99963
6.0989,0.99964
6.111,0.99964
6.1231,0.99964
6.1353,0.99964
6.1474,0.99964
6.1595,0.99965
6.1716,0.99965
6.1837,0.99965
6.1959,0.99965
6.208,0.99965
6.2201,0.99966
6.2322,0.99966
6.2444,0.99966
6.2565,0.99966
6.2686,0.99966
6.2808,0.99967
6.2929,0.99967
6.305,0.99967
6.3171,0.99967
6.3293,0.99967
6.3414,0.99967
6.3535,0.99968
6.3656,0.99968
6.3777,0.99968
6.3899,0.99968
6.402,0.99968
6.4141,0.99968
6.4262,0.99969
6.4384,0.99969
6.4505,0.99969
6.4626,0.99969
6.4748,0.99969
6.4869,0.99969
6.499,0.9997
6.5111,0.9997
6.5232,0.9997
6.5354,0.9997
6.5475,0.9997
6.5596,0.9997
6.5717,0.99971
6.5839,0.99971
6.596,0.99971
6.6081,0.99971
6.6203,0.99971
6.6324,0.99971
6.6445,0.99972
6.6566,0.99972
6.6688,0.99972
6.6809,0.99972
6.693,0.99972
6.7051,0.99972
6.7172,0.99972
6.7294,0.99973
6.7415,0.99973
6.7536,0.99973
6.7657,0.99973
6.7779,0.99973
6.79,0.99973
6.8021,0.99974
6.8143,0.99974
6.8264,0.99974
6.8385,0.99974
6.8506,0.99974
6.8628,0.99974
6.8749,0.99974
6.887,0.99975
6.8991,0.99975
6.9112,0.99975
6.9234,0.99975
6.9355,0.99975
6.9476,0.99975
6.9597,0.99975
6.9719,0.99975
6.984,0.99976
6.9961,0.99976
7.0083,0.99976
7.0204,0.99976
7.0325,0.99976
7.0446,0.99976
7.0568,0.99976
7.0689,0.99977
7.081,0.99977
7.0931,0.99977
7.1052,0.99977
7.1174,0.99977
7.1295,0.99977
7.1416,0.99977
7.1537,0.99977
7.1659,0.99978
7.178,0.99978
7.1901,0.99978
7.2023,0.99978
7.2144,0.99978
7.2265,0.99978
7.2386,0.99978
7.2508,0.99978
7.2629,0.99978
7.275,0.99979
7.2871,0.99979
7.2992,0.99979
7.3114,0.99979
7.3235,0.99979
7.3356,0.99979
7.3477,0.99979
7.3599,0.99979
7.372,0.9998
7.3841,0.9998
7.3963,0.9998
7.4084,0.9998
7.4205,0.9998
7.4326,0.9998
7.4447,0.9998
7.4569,0.9998
7.469,0.9998
7.4811,0.9998
7.4932,0.99981
7.5054,0.99981
7.5175,0.99981
7.5296,0.99981
7.5418,0.99981
7.5539,0.99981
7.566,0.99981
7.5781,0.99981
7.5903,0.99981
7.6024,0.99982
7.6145,0.99982
7.6266,0.99982
7.6387,0.99982
7.6509,0.99982
7.663,0.99982
7.6751,0.99982
7.6872,0.99982
7.6994,0.99982
7.7115,0.99982
7.7236,0.99983
7.7358,0.99983
7.7479,0.99983
7.76,0.99983
7.7721,0.99983
7.7843,0.99983
7.7964,0.99983
7.8085,0.99983
7.8206,0.99983
7.8327,0.99983
7.8449,0.99983
7.857,0.99984
7.8691,0.99984
7.8812,0.99984
7.8934,0.99984
7.9055,0.99984
7.9176,0.99984
7.9298,0.99984
7.9419,0.99984
7.954,0.99984
7.9661,0.99984
7.9783,0.99984
7.9904,0.99985
8.0025,0.99985
8.0146,0.99985
8.0267,0.99985
8.0389,0.99985
8.051,0.99985
8.0631,0.99985
8.0753,0.99985
8.0874,0.99985
8.0995,0.99985
8.1116,0.99985
8.1237,0.99986
8.1359,0.99986
8.148,0.99986
8.1601,0.99986
8.1723,0.99986
8.1844,0.99986
8.1965,0.99986
8.2086,0.99986
8.2208,0.99986
8.2329,0.99986
8.245,0.99986
8.2571,0.99986
8.2692,0.99986
8.2814,0.99987
8.2935,0.99987
8.3056,0.99987
8.3178,0.99987
8.3299,0.99987
8.342,0.99987
8.3541,0.99987
8.3663,0.99987
8.3784,0.99987
8.3905,0.99987
8.4026,0.99987
8.4147,0.99987
8.4269,0.99987
8.439,0.99988
8.4511,0.99988
8.4633,0.99988
8.4754,0.99988
8.4875,0.99988
8.4996,0.99988
8.5117,0.99988
8.5239,0.99988
8.536,0.99988
8.5481,0.99988
8.5602,0.99988
8.5724,0.99988
8.5845,0.99988
8.5966,0.99988
8.6088,0.99989
8.6209,0.99989
8.633,0.99989
8.6451,0.99989
8.6572,0.99989
8.6694,0.99989
8.6815,0.99989
8.6936,0.99989
8.7058,0.99989
8.7179,0.99989
8.73,0.99989
8.7421,0.99989
8.7543,0.99989
8.7664,0.99989
8.7785,0.9999
8.7906,0.9999
8.8027,0.9999
8.8149,0.9999
8.827,0.9999
8.8391,0.9999
8.8513,0.9999
8.8634,0.9999
8.8755,0.9999
8.8876,0.9999
8.8997,0.9999
8.9119,0.9999
8.924,0.9999
8.9361,0.9999
8.9482,0.9999
8.9604,0.9999
8.9725,0.99991
8.9846,0.99991
8.9968,0.99991
9.0089,0.99991
9.021,0.99991
9.0331,0.99991
9.0452,0.99991
9.0574,0.99991
9.0695,0.99991
9.0816,0.99991
9.0938,0.99991
9.1059,0.99991
9.118,0.99991
9.1301,0.99991
9.1423,0.99991
9.1544,0.99991
9.1665,0.99991
9.1786,0.99992
9.1907,0.99992
9.2029,0.99992
9.215,0.99992
9.2271,0.99992
9.2393,0.99992
9.2514,0.99992
9.2635,0.99992
9.2756,0.99992
9.2878,0.99992
9.2999,0.99992
9.312,0.99992
9.3241,0.99992
9.3362,0.99992
9.3484,0.99992
9.3605,0.99992
9.3726,0.99992
9.3848,0.99992
9.3969,0.99993
9.409,0.99993
9.4211,0.99993
9.4332,0.99993
9.4454,0.99993
9.4575,0.99993
9.4696,0.99993
9.4817,0.99993
9.4939,0.99993
9.506,0.99993
9.5181,0.99993
9.5303,0.99993
9.5424,0.99993
9.5545,0.99993
9.5666,0.99993
9.5787,0.99993
9.5909,0.99993
9.603,0.99993
9.6151,0.99993
9.6273,0.99994
9.6394,0.99994
9.6515,0.99994
9.6636,0.99994
9.6758,0.99994
9.6879,0.99994
9.7,0.99994
9.7121,0.99994
9.7242,0.99994
9.7364,0.99994
9.7485,0.99994
9.7606,0.99994
9.7728,0.99994
9.7849,0.99994
9.797,0.99994
9.8091,0.99994
9.8212,0.99994
9.8334,0.99994
9.8455,0.99994
9.8576,0.99994
9.8697,0.99994
9.8819,0.99995
9.894,0.99995
9.9061,0.99995
9.9183,0.99995
9.9304,0.99995
9.9425,0.99995
9.9546,0.99995
9.9667,0.99995
9.9789,0.99995
9.991,0.99995
