Wavenumber,Transmission
cm^{-1},a.u.
3995.4829,0.97463
3994.5185,0.97472
3993.5541,0.9781
3992.5897,0.98088
3991.6253,0.98141
3990.6609,0.98115
3989.6966,0.98115
3988.7322,0.98036
3987.7678,0.97889
3986.8034,0.97819
3985.839,0.97863
3984.8746,0.97871
3983.9102,0.97889
3982.9458,0.97975
3981.9814,0.9801
3981.017,0.97958
3980.0526,0.9788
3979.0882,0.97784
3978.1238,0.97706
3977.1594,0.97724
3976.195,0.97863
3975.2306,0.9801
3974.2663,0.98097
3973.3019,0.98158
3972.3375,0.98132
3971.3731,0.97923
3970.4087,0.97724
3969.4443,0.97715
3968.4799,0.97828
3967.5155,0.97941
3966.5511,0.98097
3965.5867,0.98254
3964.6223,0.9828
3963.6579,0.98219
3962.6935,0.9821
3961.7291,0.98184
3960.7647,0.9808
3959.8004,0.97949
3958.836,0.97906
3957.8716,0.97932
3956.9072,0.97932
3955.9428,0.97967
3954.9784,0.98045
3954.014,0.98106
3953.0496,0.98123
3952.0852,0.98115
3951.1208,0.98115
3950.1564,0.98132
3949.192,0.98158
3948.2276,0.98115
3947.2632,0.9801
3946.2988,0.97984
3945.3344,0.97967
3944.3701,0.97871
3943.4057,0.97819
3942.4413,0.97836
3941.4769,0.97836
3940.5125,0.97854
3939.5481,0.97949
3938.5837,0.98062
3937.6193,0.98028
3936.6549,0.97776
3935.6905,0.97472
3934.7261,0.97385
3933.7617,0.97576
3932.7973,0.97802
3931.8329,0.97854
3930.8686,0.97732
3929.9041,0.97619
3928.9398,0.9768
3927.9754,0.97802
3927.011,0.97828
3926.0466,0.97828
3925.0822,0.97854
3924.1178,0.97967
3923.1534,0.98193
3922.189,0.98306
3921.2246,0.98219
3920.2602,0.98184
3919.2958,0.98236
3918.3314,0.98262
3917.367,0.98227
3916.4026,0.98071
3915.4383,0.97897
3914.4738,0.97871
3913.5095,0.97967
3912.5451,0.98106
3911.5807,0.98132
3910.6163,0.97941
3909.6519,0.97689
3908.6875,0.97584
3907.7231,0.97567
3906.7587,0.9748
3905.7943,0.97445
3904.8299,0.97619
3903.8655,0.97932
3902.9011,0.9821
3901.9367,0.98201
3900.9723,0.97932
3900.008,0.97767
3899.0436,0.97897
3898.0792,0.9801
3897.1148,0.97915
3896.1504,0.97915
3895.186,0.98062
3894.2216,0.98088
3893.2572,0.97967
3892.2928,0.97776
3891.3284,0.97689
3890.364,0.97863
3889.3996,0.98115
3888.4352,0.98123
3887.4708,0.97984
3886.5064,0.9788
3885.542,0.97897
3884.5777,0.98071
3883.6133,0.98262
3882.6489,0.98262
3881.6845,0.98097
3880.7201,0.97932
3879.7557,0.97758
3878.7913,0.97532
3877.8269,0.97506
3876.8625,0.9775
3875.8981,0.97967
3874.9337,0.97915
3873.9693,0.97767
3873.0049,0.97854
3872.0405,0.98141
3871.0761,0.98349
3870.1118,0.98288
3869.1474,0.97915
3868.183,0.97541
3867.2186,0.97411
3866.2542,0.97472
3865.2898,0.9755
3864.3254,0.9755
3863.361,0.97498
3862.3966,0.97576
3861.4322,0.97776
3860.4678,0.97975
3859.5034,0.98062
3858.539,0.97984
3857.5746,0.97802
3856.6102,0.97663
3855.6458,0.97724
3854.6815,0.97941
3853.7171,0.9801
3852.7527,0.97915
3851.7883,0.97854
3850.8239,0.97923
3849.8595,0.98019
3848.8951,0.98141
3847.9307,0.98271
3846.9663,0.98227
3846.0019,0.9801
3845.0375,0.97819
3844.0731,0.9768
3843.1087,0.97671
3842.1443,0.97923
3841.1799,0.98132
3840.2155,0.98002
3839.2512,0.97906
3838.2868,0.98097
3837.3224,0.9828
3836.358,0.98149
3835.3936,0.97828
3834.4292,0.9768
3833.4648,0.97776
3832.5004,0.97923
3831.536,0.98045
3830.5716,0.98036
3829.6072,0.97793
3828.6428,0.97602
3827.6784,0.97715
3826.714,0.97871
3825.7496,0.97871
3824.7852,0.97836
3823.8209,0.97802
3822.8565,0.97767
3821.8921,0.97776
3820.9277,0.97897
3819.9633,0.98071
3818.9989,0.98201
3818.0345,0.98262
3817.0701,0.98149
3816.1057,0.97845
3815.1413,0.97593
3814.1769,0.97645
3813.2125,0.97854
3812.2481,0.9781
3811.2837,0.97445
3810.3193,0.97272
3809.3549,0.97602
3808.3906,0.97932
3807.4262,0.97958
3806.4618,0.97897
3805.4974,0.97802
3804.533,0.97628
3803.5686,0.97567
3802.6042,0.9768
3801.6398,0.9781
3800.6754,0.97836
3799.711,0.97706
3798.7466,0.97524
3797.7822,0.97498
3796.8178,0.97671
3795.8534,0.97958
3794.889,0.98193
3793.9246,0.98306
3792.9603,0.98245
3791.9959,0.98088
3791.0315,0.97958
3790.0671,0.97854
3789.1027,0.97715
3788.1383,0.97584
3787.1739,0.97541
3786.2095,0.97584
3785.2451,0.97706
3784.2807,0.9781
3783.3163,0.97724
3782.3519,0.97541
3781.3875,0.97541
3780.4231,0.97689
3779.4587,0.9775
3778.4943,0.97732
3777.53,0.97819
3776.5656,0.97958
3775.6012,0.97967
3774.6368,0.97802
3773.6724,0.97654
3772.708,0.97732
3771.7436,0.9788
3770.7792,0.97767
3769.8148,0.97454
3768.8504,0.97315
3767.886,0.97437
3766.9216,0.97654
3765.9572,0.97845
3764.9928,0.97889
3764.0284,0.97802
3763.064,0.97697
3762.0997,0.97637
3761.1353,0.97593
3760.1709,0.97472
3759.2065,0.97367
3758.2421,0.97454
3757.2777,0.97602
3756.3133,0.97671
3755.3489,0.97541
3754.3845,0.97211
3753.4201,0.97072
3752.4557,0.97359
3751.4913,0.9775
3750.5269,0.97915
3749.5625,0.9775
3748.5981,0.97393
3747.6337,0.97124
3746.6694,0.9702
3745.705,0.97081
3744.7406,0.97237
3743.7762,0.97419
3742.8118,0.97576
3741.8474,0.97576
3740.883,0.97524
3739.9186,0.97654
3738.9542,0.97836
3737.9898,0.97854
3737.0254,0.97758
3736.061,0.97515
3735.0966,0.97263
3734.1322,0.97306
3733.1678,0.97567
3732.2034,0.97758
3731.2391,0.97741
3730.2747,0.97576
3729.3103,0.97463
3728.3459,0.97472
3727.3815,0.97619
3726.4171,0.97932
3725.4527,0.98115
3724.4883,0.97984
3723.5239,0.97732
3722.5595,0.97515
3721.5951,0.97367
3720.6307,0.9735
3719.6663,0.97524
3718.7019,0.9781
3717.7375,0.9788
3716.7731,0.97671
3715.8088,0.97558
3714.8444,0.97489
3713.88,0.97289
3712.9156,0.97333
3711.9512,0.9768
3710.9868,0.97741
3710.0224,0.97532
3709.058,0.97524
3708.0936,0.97706
3707.1292,0.9775
3706.1648,0.97498
3705.2004,0.97246
3704.236,0.97263
3703.2716,0.97393
3702.3072,0.97385
3701.3429,0.9735
3700.3785,0.97567
3699.4141,0.97854
3698.4497,0.97793
3697.4853,0.97498
3696.5209,0.97359
3695.5565,0.9735
3694.5921,0.97211
3693.6277,0.97072
3692.6633,0.9722
3691.6989,0.97584
3690.7345,0.97923
3689.7701,0.9808
3688.8057,0.98028
3687.8413,0.97915
3686.8769,0.97854
3685.9126,0.97758
3684.9482,0.97671
3683.9838,0.97776
3683.0194,0.97967
3682.055,0.97897
3681.0906,0.97637
3680.1262,0.97454
3679.1618,0.97341
3678.1974,0.9728
3677.233,0.97341
3676.2686,0.97445
3675.3042,0.97489
3674.3398,0.97454
3673.3754,0.97306
3672.4111,0.97194
3671.4466,0.97237
3670.4823,0.97341
3669.5179,0.97489
3668.5535,0.97706
3667.5891,0.97767
3666.6247,0.97645
3665.6603,0.97663
3664.6959,0.97767
3663.7315,0.97697
3662.7671,0.97532
3661.8027,0.97402
3660.8383,0.97393
3659.8739,0.97532
3658.9095,0.97637
3657.9451,0.97602
3656.9808,0.97532
3656.0163,0.97602
3655.052,0.97715
3654.0876,0.9768
3653.1232,0.97506
3652.1588,0.97263
3651.1944,0.97089
3650.23,0.97211
3649.2656,0.97498
3648.3012,0.97628
3647.3368,0.97567
3646.3724,0.97472
3645.408,0.97324
3644.4436,0.97167
3643.4792,0.97089
3642.5148,0.97037
3641.5505,0.96985
3640.5861,0.97002
3639.6217,0.97028
3638.6573,0.96898
3637.6929,0.96611
3636.7285,0.96438
3635.7641,0.9649
3634.7997,0.96594
3633.8353,0.96672
3632.8709,0.96742
3631.9065,0.96768
3630.9421,0.96776
3629.9777,0.96794
3629.0133,0.96829
3628.0489,0.96707
3627.0845,0.96412
3626.1202,0.96264
3625.1558,0.96377
3624.1914,0.96542
3623.227,0.96559
3622.2626,0.96429
3621.2982,0.96177
3620.3338,0.96029
3619.3694,0.96116
3618.405,0.9616
3617.4406,0.96116
3616.4762,0.9616
3615.5118,0.96272
3614.5474,0.96368
3613.583,0.9642
3612.6186,0.96394
3611.6543,0.96203
3610.6899,0.9589
3609.7255,0.95795
3608.7611,0.96012
3607.7967,0.96186
3606.8323,0.96125
3605.8679,0.95986
3604.9035,0.95916
3603.9391,0.96029
3602.9747,0.96142
3602.0103,0.95994
3601.0459,0.95734
3600.0815,0.95647
3599.1171,0.95769
3598.1527,0.95968
3597.1883,0.96073
3596.224,0.95968
3595.2596,0.95708
3594.2952,0.95404
3593.3308,0.95265
3592.3664,0.95343
3591.402,0.9536
3590.4376,0.9523
3589.4732,0.95169
3588.5088,0.95186
3587.5444,0.95073
3586.58,0.94926
3585.6156,0.94995
3584.6512,0.9503
3583.6868,0.94848
3582.7224,0.94708
3581.758,0.94752
3580.7937,0.9483
3579.8292,0.94804
3578.8649,0.94743
3577.9005,0.94795
3576.9361,0.94752
3575.9717,0.94448
3575.0073,0.94187
3574.0429,0.94265
3573.0785,0.94491
3572.1141,0.94517
3571.1497,0.94335
3570.1853,0.943
3569.2209,0.94491
3568.2565,0.94596
3567.2921,0.94361
3566.3277,0.93935
3565.3634,0.93666
3564.399,0.93657
3563.4346,0.93814
3562.4702,0.93961
3561.5058,0.93892
3560.5414,0.93701
3559.577,0.93622
3558.6126,0.93675
3557.6482,0.93727
3556.6838,0.93692
3555.7194,0.93535
3554.755,0.93353
3553.7906,0.9324
3552.8262,0.93179
3551.8618,0.93092
3550.8974,0.92945
3549.9331,0.92719
3548.9687,0.92606
3548.0043,0.92806
3547.0399,0.9304
3546.0755,0.9304
3545.1111,0.9291
3544.1467,0.92771
3543.1823,0.92684
3542.2179,0.92658
3541.2535,0.92675
3540.2891,0.92736
3539.3247,0.92753
3538.3603,0.92684
3537.3959,0.92571
3536.4315,0.92432
3535.4671,0.92302
3534.5028,0.92163
3533.5384,0.92058
3532.574,0.9218
3531.6096,0.92458
3530.6452,0.92475
3529.6808,0.92189
3528.7164,0.9205
3527.752,0.92171
3526.7876,0.92241
3525.8232,0.92284
3524.8588,0.92302
3523.8944,0.92128
3522.93,0.91919
3521.9656,0.91824
3521.0012,0.91789
3520.0368,0.91832
3519.0725,0.91841
3518.1081,0.91746
3517.1437,0.91572
3516.1793,0.91381
3515.2149,0.91259
3514.2505,0.91259
3513.2861,0.91302
3512.3217,0.91329
3511.3573,0.91294
3510.3929,0.91233
3509.4285,0.91276
3508.4641,0.91294
3507.4997,0.91259
3506.5353,0.91268
3505.5709,0.91181
3504.6065,0.91007
3503.6422,0.9092
3502.6778,0.90877
3501.7134,0.90755
3500.749,0.90616
3499.7846,0.90668
3498.8202,0.90825
3497.8558,0.90807
3496.8914,0.90686
3495.927,0.90642
3494.9626,0.90581
3493.9982,0.90425
3493.0338,0.90268
3492.0694,0.90208
3491.105,0.90312
3490.1406,0.90434
3489.1762,0.90408
3488.2119,0.90295
3487.2475,0.9019
3486.2831,0.90112
3485.3187,0.90182
3484.3543,0.90329
3483.3899,0.90355
3482.4255,0.9026
3481.4611,0.90251
3480.4967,0.90355
3479.5323,0.90347
3478.5679,0.90173
3477.6035,0.90051
3476.6391,0.90121
3475.6747,0.90208
3474.7103,0.90112
3473.7459,0.89869
3472.7816,0.89738
3471.8172,0.89799
3470.8528,0.89956
3469.8884,0.89982
3468.924,0.89721
3467.9596,0.89356
3466.9952,0.89139
3466.0308,0.89148
3465.0664,0.89261
3464.102,0.89356
3463.1376,0.89374
3462.1732,0.8933
3461.2088,0.89313
3460.2444,0.8933
3459.28,0.89295
3458.3157,0.89252
3457.3513,0.89217
3456.3869,0.89148
3455.4225,0.89165
3454.4581,0.89321
3453.4937,0.89347
3452.5293,0.89287
3451.5649,0.89295
3450.6005,0.89226
3449.6361,0.89026
3448.6717,0.88844
3447.7073,0.88652
3446.7429,0.88435
3445.7785,0.88409
3444.8141,0.88444
3443.8497,0.88313
3442.8854,0.88305
3441.921,0.88444
3440.9566,0.88548
3439.9922,0.88687
3439.0278,0.88757
3438.0634,0.88522
3437.099,0.88183
3436.1346,0.88009
3435.1702,0.87966
3434.2058,0.87975
3433.2414,0.88088
3432.277,0.8834
3431.3126,0.88505
3430.3482,0.88305
3429.3838,0.87983
3428.4194,0.87905
3427.4551,0.87966
3426.4907,0.87992
3425.5263,0.87966
3424.5619,0.87992
3423.5975,0.88114
3422.6331,0.88131
3421.6687,0.87992
3420.7043,0.88018
3419.7399,0.88183
3418.7755,0.88174
3417.8111,0.88096
3416.8467,0.88183
3415.8823,0.88253
3414.9179,0.88244
3413.9536,0.88296
3412.9891,0.88357
3412.0248,0.88279
3411.0604,0.88166
3410.096,0.88114
3409.1316,0.88088
3408.1672,0.88096
3407.2028,0.88218
3406.2384,0.88313
3405.274,0.88105
3404.3096,0.87653
3403.3452,0.87384
3402.3808,0.87505
3401.4164,0.87671
3400.452,0.87584
3399.4876,0.8741
3398.5233,0.87392
3397.5588,0.87479
3396.5945,0.87514
3395.6301,0.87575
3394.6657,0.87723
3393.7013,0.87827
3392.7369,0.87844
3391.7725,0.87688
3390.8081,0.87332
3389.8437,0.87132
3388.8793,0.87253
3387.9149,0.87445
3386.9505,0.87549
3385.9861,0.87592
3385.0217,0.87488
3384.0573,0.87297
3383.093,0.87219
3382.1286,0.87245
3381.1642,0.87271
3380.1998,0.8734
3379.2354,0.87462
3378.271,0.87497
3377.3066,0.87384
3376.3422,0.87236
3375.3778,0.87184
3374.4134,0.87219
3373.449,0.87123
3372.4846,0.86767
3371.5202,0.86419
3370.5558,0.86445
3369.5914,0.86854
3368.627,0.87306
3367.6627,0.87601
3366.6983,0.87705
3365.7339,0.87566
3364.7695,0.87358
3363.8051,0.87306
3362.8407,0.87262
3361.8763,0.87132
3360.9119,0.87019
3359.9475,0.87114
3358.9831,0.87271
3358.0187,0.87253
3357.0543,0.87088
3356.0899,0.8701
3355.1255,0.87175
3354.1611,0.87358
3353.1968,0.87306
3352.2324,0.8714
3351.268,0.87062
3350.3036,0.87062
3349.3392,0.8701
3348.3748,0.86975
3347.4104,0.8708
3346.446,0.87132
3345.4816,0.87045
3344.5172,0.87045
3343.5528,0.87088
3342.5884,0.87071
3341.624,0.87088
3340.6596,0.87106
3339.6952,0.87036
3338.7308,0.86923
3337.7665,0.86889
3336.802,0.8688
3335.8377,0.8681
3334.8733,0.86758
3333.9089,0.86767
3332.9445,0.86802
3331.9801,0.86889
3331.0157,0.86967
3330.0513,0.86932
3329.0869,0.86845
3328.1225,0.86889
3327.1581,0.8701
3326.1937,0.87036
3325.2293,0.86993
3324.2649,0.8701
3323.3005,0.87001
3322.3362,0.86967
3321.3717,0.86906
3320.4074,0.86723
3319.443,0.8661
3318.4786,0.86723
3317.5142,0.86906
3316.5498,0.8708
3315.5854,0.87227
3314.621,0.87245
3313.6566,0.87132
3312.6922,0.87062
3311.7278,0.87114
3310.7634,0.87097
3309.799,0.86932
3308.8346,0.86889
3307.8702,0.87045
3306.9059,0.87088
3305.9415,0.8688
3304.9771,0.8668
3304.0127,0.86715
3303.0483,0.86862
3302.0839,0.87019
3301.1195,0.8714
3300.1551,0.8714
3299.1907,0.8701
3298.2263,0.8681
3297.2619,0.86645
3296.2975,0.8655
3295.3331,0.86532
3294.3687,0.86619
3293.4043,0.86654
3292.4399,0.86602
3291.4756,0.86645
3290.5112,0.86732
3289.5468,0.86758
3288.5824,0.86819
3287.618,0.86862
3286.6536,0.86793
3285.6892,0.86715
3284.7248,0.86776
3283.7604,0.86871
3282.796,0.86828
3281.8316,0.86663
3280.8672,0.86593
3279.9028,0.86671
3278.9384,0.86828
3277.974,0.86958
3277.0096,0.86993
3276.0453,0.86967
3275.0809,0.86889
3274.1165,0.86715
3273.1521,0.8655
3272.1877,0.86532
3271.2233,0.86645
3270.2589,0.86793
3269.2945,0.86854
3268.3301,0.86845
3267.3657,0.86828
3266.4013,0.86802
3265.4369,0.86784
3264.4725,0.86776
3263.5081,0.86793
3262.5437,0.86854
3261.5793,0.86871
3260.615,0.86784
3259.6506,0.8675
3258.6862,0.86906
3257.7218,0.8714
3256.7574,0.87262
3255.793,0.87271
3254.8286,0.87253
3253.8642,0.87236
3252.8998,0.87201
3251.9354,0.87106
3250.971,0.86975
3250.0066,0.86819
3249.0422,0.86567
3248.0778,0.86298
3247.1134,0.86246
3246.149,0.86454
3245.1847,0.86654
3244.2203,0.86619
3243.2559,0.8648
3242.2915,0.86445
3241.3271,0.86506
3240.3627,0.86532
3239.3983,0.86471
3238.4339,0.86445
3237.4695,0.86524
3236.5051,0.86654
3235.5407,0.86889
3234.5763,0.87114
3233.6119,0.87123
3232.6475,0.86949
3231.6831,0.86828
3230.7188,0.86793
3229.7544,0.86723
3228.79,0.86654
3227.8256,0.8668
3226.8612,0.86828
3225.8968,0.87001
3224.9324,0.8708
3223.968,0.87001
3223.0036,0.86932
3222.0392,0.87001
3221.0748,0.87123
3220.1104,0.87132
3219.146,0.87062
3218.1816,0.86958
3217.2172,0.86776
3216.2528,0.86654
3215.2885,0.86723
3214.3241,0.86784
3213.3597,0.8675
3212.3953,0.8661
3211.4309,0.86489
3210.4665,0.86541
3209.5021,0.86697
3208.5377,0.8681
3207.5733,0.86941
3206.6089,0.87114
3205.6445,0.87175
3204.6801,0.87062
3203.7157,0.86889
3202.7513,0.8681
3201.7869,0.86871
3200.8225,0.87001
3199.8582,0.87071
3198.8938,0.87062
3197.9294,0.87132
3196.965,0.87253
3196.0006,0.87306
3195.0362,0.87297
3194.0718,0.87193
3193.1074,0.87097
3192.143,0.87167
3191.1786,0.8728
3190.2142,0.87262
3189.2498,0.87175
3188.2854,0.87123
3187.321,0.8714
3186.3566,0.8734
3185.3922,0.87549
3184.4279,0.87531
3183.4635,0.87349
3182.4991,0.87219
3181.5347,0.87158
3180.5703,0.87167
3179.6059,0.87175
3178.6415,0.87062
3177.6771,0.86889
3176.7127,0.86889
3175.7483,0.87028
3174.7839,0.8714
3173.8195,0.87306
3172.8551,0.87488
3171.8907,0.87462
3170.9263,0.87392
3169.9619,0.87453
3168.9976,0.87479
3168.0332,0.8734
3167.0688,0.87184
3166.1044,0.87184
3165.14,0.8728
3164.1756,0.8734
3163.2112,0.8734
3162.2468,0.87314
3161.2824,0.87262
3160.318,0.8721
3159.3536,0.87123
3158.3892,0.87019
3157.4248,0.86967
3156.4604,0.87001
3155.4961,0.87193
3154.5316,0.87453
3153.5673,0.87549
3152.6029,0.87479
3151.6385,0.87392
3150.6741,0.87375
3149.7097,0.8741
3148.7453,0.8741
3147.7809,0.87427
3146.8165,0.87358
3145.8521,0.87175
3144.8877,0.87219
3143.9233,0.87471
3142.9589,0.87523
3141.9945,0.8741
3141.0301,0.8741
3140.0658,0.87497
3139.1013,0.87523
3138.137,0.8754
3137.1726,0.87505
3136.2082,0.87479
3135.2438,0.87601
3134.2794,0.87818
3133.315,0.87905
3132.3506,0.87792
3131.3862,0.87714
3130.4218,0.87844
3129.4574,0.88053
3128.493,0.88044
3127.5286,0.87836
3126.5642,0.87757
3125.5998,0.87783
3124.6355,0.87636
3123.671,0.87445
3122.7067,0.87392
3121.7423,0.87427
3120.7779,0.87523
3119.8135,0.87627
3118.8491,0.87653
3117.8847,0.87653
3116.9203,0.87723
3115.9559,0.8787
3114.9915,0.87975
3114.0271,0.88018
3113.0627,0.88009
3112.0983,0.8794
3111.1339,0.87931
3110.1695,0.88009
3109.2051,0.8807
3108.2408,0.88062
3107.2764,0.87922
3106.312,0.87818
3105.3476,0.87896
3104.3832,0.87966
3103.4188,0.87983
3102.4544,0.88001
3101.49,0.87949
3100.5256,0.87905
3099.5612,0.87957
3098.5968,0.88001
3097.6324,0.87983
3096.668,0.87975
3095.7036,0.8807
3094.7393,0.88235
3093.7748,0.88305
3092.8105,0.8834
3091.8461,0.88313
3090.8817,0.88157
3089.9173,0.88053
3088.9529,0.88088
3087.9885,0.8807
3087.0241,0.87992
3086.0597,0.88044
3085.0953,0.88192
3084.1309,0.8827
3083.1665,0.88296
3082.2021,0.8834
3081.2377,0.88409
3080.2733,0.88435
3079.309,0.88348
3078.3445,0.88287
3077.3802,0.88374
3076.4158,0.88444
3075.4514,0.88383
3074.487,0.88366
3073.5226,0.88418
3072.5582,0.88418
3071.5938,0.88383
3070.6294,0.88426
3069.665,0.88539
3068.7006,0.88618
3067.7362,0.88652
3066.7718,0.88652
3065.8074,0.886
3064.843,0.88539
3063.8787,0.88574
3062.9142,0.88739
3061.9499,0.88861
3060.9855,0.88844
3060.0211,0.88826
3059.0567,0.88939
3058.0923,0.89061
3057.1279,0.89043
3056.1635,0.8893
3055.1991,0.88844
3054.2347,0.88852
3053.2703,0.88878
3052.3059,0.88852
3051.3415,0.88809
3050.3771,0.88826
3049.4127,0.88791
3048.4484,0.88687
3047.484,0.88731
3046.5196,0.88939
3045.5552,0.8913
3044.5908,0.89226
3043.6264,0.89313
3042.662,0.894
3041.6976,0.89391
3040.7332,0.89243
3039.7688,0.89052
3038.8044,0.88948
3037.84,0.88956
3036.8756,0.89009
3035.9112,0.89095
3034.9468,0.89278
3033.9824,0.89391
3033.0181,0.89382
3032.0537,0.89408
3031.0893,0.89313
3030.1249,0.89104
3029.1605,0.89095
3028.1961,0.89347
3027.2317,0.89556
3026.2673,0.89556
3025.3029,0.89469
3024.3385,0.89513
3023.3741,0.89704
3022.4097,0.89808
3021.4453,0.89765
3020.4809,0.89808
3019.5165,0.89912
3018.5521,0.89904
3017.5878,0.89843
3016.6234,0.89869
3015.659,0.89904
3014.6946,0.89877
3013.7302,0.89834
3012.7658,0.89738
3011.8014,0.89626
3010.837,0.89582
3009.8726,0.89565
3008.9082,0.89591
3007.9438,0.89686
3006.9794,0.8973
3006.015,0.89695
3005.0506,0.89678
3004.0862,0.89686
3003.1218,0.89695
3002.1575,0.89678
3001.1931,0.89617
3000.2287,0.89547
2999.2643,0.89599
2998.2999,0.89695
2997.3355,0.89738
2996.3711,0.89825
2995.4067,0.89877
2994.4423,0.89799
2993.4779,0.89791
2992.5135,0.89956
2991.5491,0.90077
2990.5847,0.90086
2989.6203,0.90077
2988.6559,0.90095
2987.6916,0.90121
2986.7272,0.90173
2985.7628,0.90216
2984.7984,0.90321
2983.834,0.90468
2982.8696,0.90529
2981.9052,0.90494
2980.9408,0.90486
2979.9764,0.90486
2979.012,0.90416
2978.0476,0.90451
2977.0832,0.90573
2976.1188,0.90555
2975.1544,0.90416
2974.19,0.90373
2973.2256,0.90451
2972.2613,0.90529
2971.2969,0.90494
2970.3325,0.90347
2969.3681,0.90303
2968.4037,0.90477
2967.4393,0.90625
2966.4749,0.90651
2965.5105,0.90668
2964.5461,0.90633
2963.5817,0.90512
2962.6173,0.90494
2961.6529,0.90668
2960.6885,0.90903
2959.7241,0.90938
2958.7597,0.90799
2957.7953,0.90651
2956.831,0.90659
2955.8666,0.90746
2954.9022,0.9079
2953.9378,0.90781
2952.9734,0.90712
2952.009,0.90633
2951.0446,0.90659
2950.0802,0.90781
2949.1158,0.90807
2948.1514,0.90694
2947.187,0.90659
2946.2226,0.90738
2945.2582,0.90816
2944.2938,0.90972
2943.3294,0.91103
2942.365,0.91016
2941.4007,0.90851
2940.4363,0.90833
2939.4719,0.9105
2938.5075,0.91294
2937.5431,0.91294
2936.5787,0.9119
2935.6143,0.91216
2934.6499,0.91311
2933.6855,0.91346
2932.7211,0.91302
2931.7567,0.91276
2930.7923,0.91276
2929.8279,0.9132
2928.8635,0.91363
2927.8991,0.91424
2926.9347,0.91502
2925.9704,0.91468
2925.006,0.91372
2924.0416,0.91311
2923.0772,0.91302
2922.1128,0.91424
2921.1484,0.91598
2920.184,0.91633
2919.2196,0.91546
2918.2552,0.91589
2917.2908,0.91754
2916.3264,0.91763
2915.362,0.91615
2914.3976,0.91502
2913.4332,0.91459
2912.4688,0.91415
2911.5044,0.91346
2910.5401,0.91259
2909.5757,0.91294
2908.6113,0.91415
2907.6469,0.91372
2906.6825,0.91233
2905.7181,0.91285
2904.7537,0.91389
2903.7893,0.91259
2902.8249,0.90981
2901.8605,0.9079
2900.8961,0.90781
2899.9317,0.90868
2898.9673,0.90946
2898.0029,0.90938
2897.0386,0.90877
2896.0741,0.90825
2895.1098,0.90781
2894.1454,0.90668
2893.181,0.90555
2892.2166,0.9046
2891.2522,0.90329
2890.2878,0.90234
2889.3234,0.90268
2888.359,0.90347
2887.3946,0.9039
2886.4302,0.90434
2885.4658,0.90468
2884.5014,0.90468
2883.537,0.90529
2882.5726,0.90633
2881.6083,0.90651
2880.6438,0.90677
2879.6795,0.90772
2878.7151,0.90807
2877.7507,0.90703
2876.7863,0.90677
2875.8219,0.90781
2874.8575,0.90868
2873.8931,0.90825
2872.9287,0.90781
2871.9643,0.90877
2870.9999,0.91059
2870.0355,0.91137
2869.0711,0.91198
2868.1067,0.91276
2867.1423,0.91285
2866.1779,0.91337
2865.2135,0.9145
2864.2492,0.91441
2863.2848,0.91285
2862.3204,0.91181
2861.356,0.91207
2860.3916,0.91224
2859.4272,0.91155
2858.4628,0.91163
2857.4984,0.91268
2856.534,0.9132
2855.5696,0.91311
2854.6052,0.91355
2853.6408,0.91494
2852.6764,0.91676
2851.712,0.91893
2850.7476,0.92102
2849.7833,0.92223
2848.8189,0.92215
2847.8545,0.92154
2846.8901,0.92189
2845.9257,0.9231
2844.9613,0.9231
2843.9969,0.92137
2843.0325,0.91945
2842.0681,0.91945
2841.1037,0.92154
2840.1393,0.92432
2839.1749,0.92588
2838.2105,0.92614
2837.2461,0.92554
2836.2818,0.92397
2835.3173,0.92276
2834.353,0.92371
2833.3886,0.9258
2832.4242,0.92745
2831.4598,0.92823
2830.4954,0.92806
2829.531,0.92693
2828.5666,0.92554
2827.6022,0.92554
2826.6378,0.9271
2825.6734,0.92788
2824.709,0.92736
2823.7446,0.92727
2822.7802,0.92849
2821.8158,0.93005
2820.8515,0.93058
2819.887,0.92979
2818.9227,0.92866
2817.9583,0.92823
2816.9939,0.92875
2816.0295,0.92919
2815.0651,0.92901
2814.1007,0.92936
2813.1363,0.93101
2812.1719,0.93214
2811.2075,0.93223
2810.2431,0.93257
2809.2787,0.93292
2808.3143,0.93292
2807.3499,0.93327
2806.3855,0.93336
2805.4212,0.93275
2804.4567,0.93257
2803.4924,0.93214
2802.528,0.93118
2801.5636,0.93084
2800.5992,0.9311
2799.6348,0.93101
2798.6704,0.93075
2797.706,0.93101
2796.7416,0.93197
2795.7772,0.93353
2794.8128,0.9344
2793.8484,0.93405
2792.884,0.93396
2791.9196,0.93457
2790.9552,0.93475
2789.9909,0.93423
2789.0265,0.93405
2788.0621,0.93483
2787.0977,0.93544
2786.1333,0.93562
2785.1689,0.93631
2784.2045,0.93779
2783.2401,0.9397
2782.2757,0.94161
2781.3113,0.94265
2780.3469,0.94205
2779.3825,0.94083
2778.4181,0.9397
2777.4537,0.93909
2776.4893,0.93874
2775.5249,0.93935
2774.5606,0.94109
2773.5962,0.94205
2772.6318,0.94135
2771.6674,0.94039
2770.703,0.93987
2769.7386,0.93953
2768.7742,0.93883
2767.8098,0.93883
2766.8454,0.94074
2765.881,0.94309
2764.9166,0.94448
2763.9522,0.94413
2762.9878,0.94239
2762.0234,0.94135
2761.059,0.94196
2760.0947,0.94309
2759.1303,0.94378
2758.1659,0.94474
2757.2015,0.94552
2756.2371,0.94517
2755.2727,0.94483
2754.3083,0.94639
2753.3439,0.94821
2752.3795,0.94839
2751.4151,0.94708
2750.4507,0.94578
2749.4863,0.94517
2748.5219,0.94526
2747.5575,0.94569
2746.5931,0.94569
2745.6287,0.94517
2744.6644,0.94535
2743.7,0.94622
2742.7356,0.94656
2741.7712,0.94656
2740.8068,0.94622
2739.8424,0.94509
2738.878,0.94413
2737.9136,0.94396
2736.9492,0.94404
2735.9848,0.94413
2735.0204,0.94526
2734.056,0.94726
2733.0916,0.94804
2732.1272,0.94752
2731.1628,0.94656
2730.1984,0.94604
2729.2341,0.94648
2728.2697,0.94761
2727.3053,0.94856
2726.3409,0.94891
2725.3765,0.94848
2724.4121,0.9483
2723.4477,0.94908
2722.4833,0.94978
2721.5189,0.94926
2720.5545,0.94856
2719.5901,0.94969
2718.6257,0.95126
2717.6613,0.95099
2716.6969,0.9496
2715.7325,0.94952
2714.7681,0.95039
2713.8038,0.95065
2712.8394,0.95047
2711.875,0.95047
2710.9106,0.9503
2709.9462,0.95004
2708.9818,0.94995
2708.0174,0.95013
2707.053,0.95056
2706.0886,0.95108
2705.1242,0.95152
2704.1598,0.95143
2703.1954,0.95126
2702.231,0.95143
2701.2666,0.95221
2700.3022,0.95256
2699.3378,0.95221
2698.3735,0.95212
2697.4091,0.95221
2696.4447,0.95126
2695.4803,0.95021
2694.5159,0.9503
2693.5515,0.95065
2692.5871,0.9503
2691.6227,0.94952
2690.6583,0.94952
2689.6939,0.95126
2688.7295,0.95325
2687.7651,0.95412
2686.8007,0.95404
2685.8363,0.95343
2684.8719,0.95282
2683.9075,0.95299
2682.9432,0.95395
2681.9788,0.95517
2681.0144,0.95551
2680.05,0.9549
2679.0856,0.95482
2678.1212,0.95508
2677.1568,0.95447
2676.1924,0.95343
2675.228,0.95308
2674.2636,0.95334
2673.2992,0.95369
2672.3348,0.95378
2671.3704,0.9536
2670.406,0.95378
2669.4416,0.95438
2668.4772,0.95447
2667.5129,0.9543
2666.5485,0.95456
2665.5841,0.95482
2664.6197,0.9549
2663.6553,0.95508
2662.6909,0.95473
2661.7265,0.95299
2660.7621,0.95117
2659.7977,0.95065
2658.8333,0.95099
2657.8689,0.95099
2656.9045,0.95073
2655.9401,0.95047
2654.9757,0.94995
2654.0113,0.94926
2653.0469,0.94934
2652.0826,0.95126
2651.1182,0.95317
2650.1538,0.9523
2649.1894,0.9496
2648.225,0.94865
2647.2606,0.94978
2646.2962,0.95065
2645.3318,0.95143
2644.3674,0.95265
2643.403,0.95221
2642.4386,0.95004
2641.4742,0.94882
2640.5098,0.94917
2639.5454,0.94969
2638.581,0.94952
2637.6166,0.94969
2636.6523,0.95065
2635.6879,0.95134
2634.7235,0.95152
2633.7591,0.9523
2632.7947,0.95395
2631.8303,0.95447
2630.8659,0.95265
2629.9015,0.95047
2628.9371,0.94952
2627.9727,0.94969
2627.0083,0.9503
2626.0439,0.95178
2625.0795,0.95369
2624.1151,0.95386
2623.1507,0.95265
2622.1863,0.95204
2621.222,0.95204
2620.2576,0.95195
2619.2932,0.95152
2618.3288,0.95152
2617.3644,0.95247
2616.4,0.9536
2615.4356,0.95404
2614.4712,0.95456
2613.5068,0.95551
2612.5424,0.95612
2611.578,0.95586
2610.6136,0.95482
2609.6492,0.95395
2608.6848,0.95473
2607.7204,0.95569
2606.756,0.95551
2605.7917,0.95586
2604.8273,0.95673
2603.8629,0.95595
2602.8985,0.95404
2601.9341,0.95343
2600.9697,0.9549
2600.0053,0.95751
2599.0409,0.9589
2598.0765,0.95803
2597.1121,0.9563
2596.1477,0.95569
2595.1833,0.95621
2594.2189,0.95673
2593.2545,0.95638
2592.2901,0.95586
2591.3258,0.95638
2590.3614,0.95751
2589.397,0.95899
2588.4326,0.95977
2587.4682,0.95899
2586.5038,0.95821
2585.5394,0.95829
2584.575,0.95855
2583.6106,0.95881
2582.6462,0.9589
2581.6818,0.95812
2580.7174,0.95751
2579.753,0.95829
2578.7886,0.95881
2577.8243,0.95881
2576.8598,0.95986
2575.8955,0.96177
2574.9311,0.96299
2573.9667,0.96238
2573.0023,0.96047
2572.0379,0.95934
2571.0735,0.95951
2570.1091,0.95925
2569.1447,0.95812
2568.1803,0.95829
2567.2159,0.96012
2566.2515,0.96238
2565.2871,0.96455
2564.3227,0.96568
2563.3583,0.96524
2562.394,0.96359
2561.4295,0.96186
2560.4652,0.96151
2559.5008,0.96264
2558.5364,0.96272
2557.572,0.96064
2556.6076,0.95899
2555.6432,0.95864
2554.6788,0.95803
2553.7144,0.95725
2552.75,0.95821
2551.7856,0.95986
2550.8212,0.95916
2549.8568,0.95621
2548.8924,0.95473
2547.928,0.95682
2546.9637,0.96081
2545.9992,0.96377
2545.0349,0.96455
2544.0705,0.96464
2543.1061,0.96507
2542.1417,0.9649
2541.1773,0.96368
2540.2129,0.96272
2539.2485,0.96281
2538.2841,0.96272
2537.3197,0.96229
2536.3553,0.9629
2535.3909,0.96472
2534.4265,0.96542
2533.4621,0.96359
2532.4977,0.9616
2531.5334,0.9616
2530.569,0.9622
2529.6046,0.96177
2528.6402,0.96133
2527.6758,0.96116
2526.7114,0.96125
2525.747,0.96246
2524.7826,0.96385
2523.8182,0.96412
2522.8538,0.96342
2521.8894,0.96368
2520.925,0.96533
2519.9606,0.96655
2518.9962,0.9662
2518.0318,0.96594
2517.0674,0.9662
2516.1031,0.96585
2515.1387,0.96516
2514.1743,0.96498
2513.2099,0.96559
2512.2455,0.9662
2511.2811,0.96533
2510.3167,0.96368
2509.3523,0.96325
2508.3879,0.96299
2507.4235,0.96246
2506.4591,0.9629
2505.4947,0.9642
2504.5303,0.96429
2503.5659,0.96351
2502.6015,0.9642
2501.6372,0.96542
2500.6728,0.96542
2499.7084,0.96507
2498.744,0.9649
2497.7796,0.96507
2496.8152,0.96716
2495.8508,0.96924
2494.8864,0.96742
2493.922,0.96455
2492.9576,0.96516
2491.9932,0.96724
2491.0288,0.96716
2490.0644,0.96429
2489.1,0.96064
2488.1356,0.95968
2487.1712,0.9622
2486.2069,0.96464
2485.2425,0.96455
2484.2781,0.96333
2483.3137,0.96168
2482.3493,0.96099
2481.3849,0.96264
2480.4205,0.96516
2479.4561,0.96646
2478.4917,0.96672
2477.5273,0.9669
2476.5629,0.96785
2475.5985,0.96889
2474.6341,0.96872
2473.6697,0.96794
2472.7053,0.96707
2471.7409,0.96637
2470.7766,0.96681
2469.8122,0.96698
2468.8478,0.96533
2467.8834,0.96385
2466.919,0.96524
2465.9546,0.96794
2464.9902,0.96915
2464.0258,0.9695
2463.0614,0.96898
2462.097,0.96698
2461.1326,0.96533
2460.1682,0.96498
2459.2038,0.96472
2458.2394,0.96385
2457.275,0.96359
2456.3106,0.96394
2455.3463,0.96307
2454.3819,0.96038
2453.4175,0.95786
2452.4531,0.95708
2451.4887,0.95864
2450.5243,0.96116
2449.5599,0.96255
2448.5955,0.96316
2447.6311,0.96385
2446.6667,0.96438
2445.7023,0.96498
2444.7379,0.9662
2443.7735,0.9675
2442.8091,0.96776
2441.8447,0.96681
2440.8803,0.96542
2439.916,0.96368
2438.9516,0.96177
2437.9872,0.96133
2437.0228,0.96359
2436.0584,0.96629
2435.094,0.96811
2434.1296,0.96898
2433.1652,0.9682
2432.2008,0.96655
2431.2364,0.96603
2430.272,0.96646
2429.3076,0.96559
2428.3432,0.96333
2427.3788,0.96168
2426.4144,0.9616
2425.45,0.96238
2424.4857,0.96412
2423.5213,0.96603
2422.5569,0.96698
2421.5925,0.9669
2420.6281,0.96655
2419.6637,0.9669
2418.6993,0.9675
2417.7349,0.96698
2416.7705,0.96542
2415.8061,0.96481
2414.8417,0.9662
2413.8773,0.96837
2412.9129,0.96933
2411.9485,0.96907
2410.9841,0.96898
2410.0197,0.96898
2409.0554,0.96829
2408.091,0.96724
2407.1266,0.96655
2406.1622,0.96655
2405.1978,0.96637
2404.2334,0.96585
2403.269,0.9669
2402.3046,0.96959
2401.3402,0.97133
2400.3758,0.97037
2399.4114,0.96829
2398.447,0.96794
2397.4826,0.96829
2396.5182,0.96794
2395.5538,0.96803
2394.5894,0.96907
2393.6251,0.96985
2392.6607,0.96985
2391.6963,0.96976
2390.7319,0.96907
2389.7675,0.96829
2388.8031,0.9682
2387.8387,0.96915
2386.8743,0.97063
2385.9099,0.97107
2384.9455,0.97037
2383.9811,0.96985
2383.0167,0.97046
2382.0523,0.97124
2381.0879,0.97167
2380.1235,0.97202
2379.1591,0.97237
2378.1948,0.97333
2377.2304,0.97419
2376.266,0.97289
2375.3016,0.96976
2374.3372,0.96803
2373.3728,0.96872
2372.4084,0.96959
2371.444,0.96976
2370.4796,0.97011
2369.5152,0.97098
2368.5508,0.97089
2367.5864,0.96985
2366.622,0.96968
2365.6576,0.96994
2364.6932,0.96942
2363.7288,0.96985
2362.7645,0.97159
2361.8001,0.97202
2360.8357,0.96985
2359.8713,0.96716
2358.9069,0.96655
2357.9425,0.96776
2356.9781,0.96803
2356.0137,0.96672
2355.0493,0.96516
2354.0849,0.96385
2353.1205,0.96359
2352.1561,0.96472
2351.1917,0.9662
2350.2273,0.96716
2349.2629,0.9675
2348.2985,0.96794
2347.3342,0.96855
2346.3698,0.96855
2345.4054,0.96742
2344.441,0.96594
2343.4766,0.96577
2342.5122,0.96698
2341.5478,0.96768
2340.5834,0.9669
2339.619,0.96542
2338.6546,0.96438
2337.6902,0.9642
2336.7258,0.96403
2335.7614,0.96438
2334.797,0.96568
2333.8326,0.96663
2332.8683,0.96681
2331.9039,0.96681
2330.9395,0.96646
2329.9751,0.96629
2329.0107,0.96611
2328.0463,0.96429
2327.0819,0.96125
2326.1175,0.9569
2325.1531,0.95065
2324.1887,0.94552
2323.2243,0.94474
2322.2599,0.94735
2321.2955,0.94995
2320.3311,0.95169
2319.3668,0.95369
2318.4023,0.95473
2317.438,0.95447
2316.4736,0.95456
2315.5092,0.95577
2314.5448,0.95708
2313.5804,0.95873
2312.616,0.96081
2311.6516,0.9622
2310.6872,0.96246
2309.7228,0.9616
2308.7584,0.95916
2307.794,0.95603
2306.8296,0.95508
2305.8652,0.95716
2304.9008,0.95977
2303.9365,0.96029
2302.972,0.95916
2302.0077,0.95786
2301.0433,0.95682
2300.0789,0.95664
2299.1145,0.95708
2298.1501,0.95708
2297.1857,0.95647
2296.2213,0.95517
2295.2569,0.95395
2294.2925,0.95421
2293.3281,0.95612
2292.3637,0.95795
2291.3993,0.95873
2290.4349,0.95873
2289.4705,0.95873
2288.5062,0.95873
2287.5417,0.95803
2286.5774,0.95603
2285.613,0.95299
2284.6486,0.95108
2283.6842,0.95308
2282.7198,0.95586
2281.7554,0.95543
2280.791,0.95412
2279.8266,0.95482
2278.8622,0.9556
2277.8978,0.95508
2276.9334,0.9543
2275.969,0.95404
2275.0046,0.95412
2274.0402,0.95412
2273.0759,0.95534
2272.1115,0.95795
2271.1471,0.96038
2270.1827,0.9616
2269.2183,0.96203
2268.2539,0.96255
2267.2895,0.96325
2266.3251,0.96325
2265.3607,0.96229
2264.3963,0.96229
2263.4319,0.96377
2262.4675,0.96307
2261.5031,0.96081
2260.5387,0.96125
2259.5743,0.96342
2258.6099,0.96394
2257.6456,0.96238
2256.6812,0.96055
2255.7168,0.96081
2254.7524,0.96333
2253.788,0.96585
2252.8236,0.96681
2251.8592,0.96464
2250.8948,0.96073
2249.9304,0.95812
2248.966,0.9569
2248.0016,0.95734
2247.0372,0.96081
2246.0728,0.96281
2245.1084,0.96047
2244.144,0.95769
2243.1797,0.95716
2242.2153,0.95942
2241.2509,0.96368
2240.2865,0.96724
2239.3221,0.96776
2238.3577,0.96516
2237.3933,0.96186
2236.4289,0.95968
2235.4645,0.95855
2234.5001,0.95968
2233.5357,0.96264
2232.5713,0.96524
2231.6069,0.9649
2230.6425,0.96064
2229.6781,0.95682
2228.7137,0.95751
2227.7494,0.96064
2226.785,0.96229
2225.8206,0.96055
2224.8562,0.95708
2223.8918,0.95742
2222.9274,0.96438
2221.963,0.97159
2220.9986,0.97211
2220.0342,0.96855
2219.0698,0.96498
2218.1054,0.96168
2217.141,0.96055
2216.1766,0.96333
2215.2122,0.96759
2214.2478,0.96655
2213.2834,0.95994
2212.3191,0.95603
2211.3547,0.95769
2210.3903,0.96047
2209.4259,0.96021
2208.4615,0.95829
2207.4971,0.95734
2206.5327,0.95829
2205.5683,0.96073
2204.6039,0.96351
2203.6395,0.96681
2202.6751,0.96742
2201.7107,0.96351
2200.7463,0.96203
2199.7819,0.96481
2198.8175,0.96637
2197.8531,0.96681
2196.8888,0.96724
2195.9244,0.96368
2194.96,0.95908
2193.9956,0.96003
2193.0312,0.96307
2192.0668,0.9642
2191.1024,0.96385
2190.138,0.95968
2189.1736,0.95464
2188.2092,0.95343
2187.2448,0.95126
2186.2804,0.94804
2185.316,0.95047
2184.3516,0.95577
2183.3872,0.96055
2182.4228,0.96559
2181.4585,0.96924
2180.4941,0.96976
2179.5297,0.96742
2178.5653,0.96412
2177.6009,0.96012
2176.6365,0.9563
2175.6721,0.95777
2174.7077,0.9649
2173.7433,0.97081
2172.7789,0.97133
2171.8145,0.96742
2170.8501,0.96255
2169.8857,0.95803
2168.9213,0.95239
2167.9569,0.94656
2166.9925,0.94396
2166.0282,0.9463
2165.0638,0.949
2164.0994,0.94674
2163.135,0.94205
2162.1706,0.939
2161.2062,0.93483
2160.2418,0.9311
2159.2774,0.94422
2158.313,0.97689
2157.3486,1
2156.3842,0.99948
2155.4198,0.99305
2154.4554,0.99253
2153.491,0.99279
2152.5266,0.98957
2151.5622,0.98427
2150.5979,0.98036
2149.6335,0.98158
2148.6691,0.98297
2147.7047,0.98019
2146.7403,0.97567
2145.7759,0.9715
2144.8115,0.97228
2143.8471,0.97854
2142.8827,0.9801
2141.9183,0.97584
2140.9539,0.97272
2139.9895,0.97124
2139.0251,0.97202
2138.0607,0.97732
2137.0963,0.98062
2136.1319,0.97697
2135.1676,0.97593
2134.2032,0.98419
2133.2388,0.99253
2132.2744,0.9934
2131.31,0.98975
2130.3456,0.98731
2129.3812,0.98749
2128.4168,0.98697
2127.4524,0.98384
2126.488,0.98062
2125.5236,0.98115
2124.5592,0.9834
2123.5948,0.98115
2122.6304,0.97645
2121.666,0.97697
2120.7016,0.98184
2119.7373,0.9834
2118.7729,0.97923
2117.8085,0.97341
2116.8441,0.96829
2115.8797,0.96377
2114.9153,0.96272
2113.9509,0.96542
2112.9865,0.96794
2112.0221,0.96889
2111.0577,0.96811
2110.0933,0.96533
2109.1289,0.96455
2108.1645,0.96794
2107.2001,0.97054
2106.2357,0.96994
2105.2713,0.96889
2104.307,0.96933
2103.3426,0.97054
2102.3782,0.96924
2101.4138,0.96472
2100.4494,0.96238
2099.485,0.96368
2098.5206,0.96464
2097.5562,0.9649
2096.5918,0.96794
2095.6274,0.97324
2094.663,0.97619
2093.6986,0.97697
2092.7342,0.97793
2091.7698,0.97715
2090.8054,0.97228
2089.841,0.96655
2088.8767,0.96603
2087.9123,0.9695
2086.9479,0.97063
2085.9835,0.96872
2085.0191,0.96707
2084.0547,0.96794
2083.0903,0.97002
2082.1259,0.96924
2081.1615,0.96577
2080.1971,0.96464
2079.2327,0.96559
2078.2683,0.96568
2077.3039,0.96698
2076.3395,0.96837
2075.3751,0.96672
2074.4108,0.96568
2073.4464,0.96733
2072.482,0.96907
2071.5176,0.96994
2070.5532,0.97133
2069.5888,0.97133
2068.6244,0.96594
2067.66,0.9576
2066.6956,0.95438
2065.7312,0.95855
2064.7668,0.96412
2063.8024,0.96794
2062.838,0.97115
2061.8736,0.97202
2060.9092,0.96785
2059.9448,0.96264
2058.9805,0.96029
2058.0161,0.96012
2057.0517,0.96168
2056.0873,0.96203
2055.1229,0.95812
2054.1585,0.95586
2053.1941,0.95786
2052.2297,0.95716
2051.2653,0.95317
2050.3009,0.94987
2049.3365,0.94908
2048.3721,0.95247
2047.4077,0.95708
2046.4433,0.96021
2045.4789,0.96507
2044.5146,0.96837
2043.5502,0.96585
2042.5858,0.96438
2041.6214,0.96768
2040.657,0.96742
2039.6926,0.95881
2038.7282,0.94943
2037.7638,0.94639
2036.7994,0.94674
2035.835,0.95004
2034.8706,0.95968
2033.9062,0.96776
2032.9418,0.96733
2031.9774,0.96403
2031.013,0.96385
2030.0486,0.96707
2029.0843,0.96768
2028.1199,0.96507
2027.1555,0.96594
2026.1911,0.96803
2025.2267,0.9669
2024.2623,0.96733
2023.2979,0.97402
2022.3335,0.97915
2021.3691,0.97558
2020.4047,0.96811
2019.4403,0.96194
2018.4759,0.96055
2017.5115,0.96568
2016.5471,0.97211
2015.5827,0.97315
2014.6183,0.96803
2013.654,0.96472
2012.6896,0.97228
2011.7252,0.98471
2010.7608,0.98566
2009.7964,0.97454
2008.832,0.96533
2007.8676,0.96151
2006.9032,0.9622
2005.9388,0.96855
2004.9744,0.97515
2004.01,0.97767
2003.0456,0.97758
2002.0812,0.97871
2001.1168,0.98106
2000.1524,0.98054
1999.188,0.97758
1998.2237,0.97393
1997.2593,0.96881
1996.2949,0.96481
1995.3305,0.96464
1994.3661,0.96507
1993.4017,0.96481
1992.4373,0.96742
1991.4729,0.9702
1990.5085,0.96663
1989.5441,0.96203
1988.5797,0.96455
1987.6153,0.96681
1986.6509,0.96151
1985.6865,0.95395
1984.7222,0.95047
1983.7577,0.95265
1982.7934,0.95821
1981.829,0.96107
1980.8646,0.95291
1979.9002,0.93475
1978.9358,0.92371
1977.9714,0.92806
1977.007,0.93918
1976.0426,0.95186
1975.0782,0.9622
1974.1138,0.96776
1973.1494,0.97228
1972.185,0.97532
1971.2206,0.97567
1970.2562,0.97697
1969.2919,0.97923
1968.3274,0.97958
1967.3631,0.9801
1966.3987,0.98271
1965.4343,0.98132
1964.4699,0.97532
1963.5055,0.97419
1962.5411,0.97663
1961.5767,0.97532
1960.6123,0.97576
1959.6479,0.98236
1958.6835,0.98723
1957.7191,0.98627
1956.7547,0.98419
1955.7903,0.98323
1954.8259,0.98097
1953.8616,0.97706
1952.8972,0.97393
1951.9328,0.9735
1950.9684,0.97498
1950.004,0.97558
1949.0396,0.97541
1948.0752,0.97584
1947.1108,0.97732
1946.1464,0.97906
1945.182,0.97889
1944.2176,0.97758
1943.2532,0.97654
1942.2888,0.97567
1941.3244,0.97558
1940.36,0.97602
1939.3956,0.97715
1938.4313,0.97706
1937.4669,0.97376
1936.5025,0.97194
1935.5381,0.97402
1934.5737,0.97506
1933.6093,0.97298
1932.6449,0.97107
1931.6805,0.97185
1930.7161,0.97498
1929.7517,0.97802
1928.7873,0.97958
1927.8229,0.97975
1926.8585,0.97819
1925.8941,0.97706
1924.9297,0.97802
1923.9653,0.98062
1923.001,0.98314
1922.0366,0.98358
1921.0722,0.98141
1920.1078,0.97776
1919.1434,0.97654
1918.179,0.97993
1917.2146,0.9841
1916.2502,0.98575
1915.2858,0.98427
1914.3214,0.98028
1913.357,0.97628
1912.3926,0.97463
1911.4282,0.9755
1910.4638,0.9775
1909.4994,0.97732
1908.535,0.97472
1907.5706,0.97341
1906.6063,0.97411
1905.6419,0.97463
1904.6775,0.9748
1903.7131,0.97541
1902.7487,0.97576
1901.7843,0.97628
1900.8199,0.97828
1899.8555,0.98045
1898.8911,0.98019
1897.9267,0.9781
1896.9623,0.97671
1895.9979,0.97619
1895.0335,0.97584
1894.0691,0.97715
1893.1047,0.97897
1892.1403,0.97706
1891.176,0.97333
1890.2116,0.97228
1889.2472,0.97393
1888.2828,0.97671
1887.3184,0.9788
1886.354,0.9788
1885.3896,0.97706
1884.4252,0.97576
1883.4608,0.9768
1882.4964,0.97793
1881.532,0.97697
1880.5676,0.97524
1879.6032,0.97472
1878.6388,0.97489
1877.6744,0.97472
1876.7101,0.97489
1875.7457,0.97628
1874.7813,0.97828
1873.8169,0.97923
1872.8525,0.9788
1871.8881,0.97845
1870.9237,0.97854
1869.9593,0.97689
1868.9949,0.97393
1868.0305,0.97306
1867.0661,0.97437
1866.1017,0.97472
1865.1373,0.9735
1864.1729,0.97272
1863.2086,0.97411
1862.2441,0.97645
1861.2798,0.9775
1860.3154,0.97584
1859.351,0.97298
1858.3866,0.97185
1857.4222,0.97159
1856.4578,0.97167
1855.4934,0.97437
1854.529,0.97758
1853.5646,0.97802
1852.6002,0.97732
1851.6358,0.97732
1850.6714,0.97637
1849.707,0.97524
1848.7426,0.97558
1847.7783,0.97654
1846.8139,0.97697
1845.8495,0.97671
1844.8851,0.9768
1843.9207,0.97758
1842.9563,0.97724
1841.9919,0.97602
1841.0275,0.97567
1840.0631,0.97584
1839.0987,0.97584
1838.1343,0.97611
1837.1699,0.97628
1836.2055,0.97611
1835.2411,0.97611
1834.2767,0.97611
1833.3123,0.9755
1832.348,0.97402
1831.3836,0.9728
1830.4192,0.97306
1829.4548,0.97419
1828.4904,0.97463
1827.526,0.97385
1826.5616,0.97306
1825.5972,0.97298
1824.6328,0.97385
1823.6684,0.97576
1822.704,0.97732
1821.7396,0.97767
1820.7752,0.97741
1819.8108,0.97724
1818.8464,0.9768
1817.882,0.97689
1816.9177,0.97863
1815.9533,0.97984
1814.9889,0.97932
1814.0245,0.97845
1813.0601,0.97724
1812.0957,0.97541
1811.1313,0.97472
1810.1669,0.97567
1809.2025,0.97654
1808.2381,0.97671
1807.2737,0.97715
1806.3093,0.97767
1805.3449,0.97724
1804.3805,0.97584
1803.4161,0.97454
1802.4517,0.97428
1801.4874,0.97454
1800.523,0.97541
1799.5586,0.97715
1798.5942,0.97776
1797.6298,0.97593
1796.6654,0.97411
1795.701,0.97341
1794.7366,0.97341
1793.7722,0.97376
1792.8078,0.97402
1791.8434,0.97385
1790.879,0.97333
1789.9146,0.97289
1788.9502,0.97272
1787.9858,0.97237
1787.0214,0.97194
1786.057,0.97185
1785.0927,0.97202
1784.1283,0.97167
1783.1639,0.97107
1782.1995,0.97063
1781.2351,0.97072
1780.2707,0.97133
1779.3063,0.9715
1778.3419,0.97115
1777.3775,0.9722
1776.4131,0.97428
1775.4487,0.97541
1774.4843,0.97532
1773.5199,0.97437
1772.5555,0.97333
1771.5911,0.9728
1770.6267,0.97298
1769.6624,0.97333
1768.698,0.97298
1767.7336,0.97202
1766.7692,0.9715
1765.8048,0.97159
1764.8404,0.9715
1763.876,0.97124
1762.9116,0.97124
1761.9472,0.97159
1760.9828,0.97194
1760.0184,0.97194
1759.054,0.97176
1758.0896,0.97159
1757.1252,0.97107
1756.1608,0.96994
1755.1965,0.96829
1754.2321,0.96742
1753.2677,0.96855
1752.3033,0.9702
1751.3389,0.97124
1750.3745,0.97194
1749.4101,0.97194
1748.4457,0.97072
1747.4813,0.96968
1746.5169,0.96976
1745.5525,0.97011
1744.5881,0.96959
1743.6237,0.96915
1742.6593,0.96976
1741.6949,0.97081
1740.7305,0.97063
1739.7662,0.96968
1738.8018,0.96959
1737.8374,0.96985
1736.873,0.96959
1735.9086,0.96863
1734.9442,0.96794
1733.9798,0.96837
1733.0154,0.96907
1732.051,0.96837
1731.0866,0.96716
1730.1222,0.96724
1729.1578,0.9682
1728.1934,0.96776
1727.229,0.96611
1726.2647,0.96516
1725.3003,0.96516
1724.3359,0.96568
1723.3715,0.9662
1722.4071,0.96611
1721.4427,0.9662
1720.4783,0.96681
1719.5139,0.96724
1718.5495,0.9669
1717.5851,0.96637
1716.6207,0.96559
1715.6563,0.96429
1714.6919,0.96299
1713.7275,0.96203
1712.7631,0.96125
1711.7987,0.96047
1710.8344,0.96055
1709.87,0.96186
1708.9056,0.96246
1707.9412,0.9616
1706.9768,0.96047
1706.0124,0.96029
1705.048,0.96021
1704.0836,0.95986
1703.1192,0.95968
1702.1548,0.9596
1701.1904,0.95873
1700.226,0.95708
1699.2616,0.95569
1698.2972,0.95517
1697.3328,0.9549
1696.3684,0.95395
1695.4041,0.95299
1694.4397,0.95282
1693.4753,0.95291
1692.5109,0.95299
1691.5465,0.95308
1690.5821,0.95273
1689.6177,0.95204
1688.6533,0.9516
1687.6889,0.95169
1686.7245,0.95134
1685.7601,0.94969
1684.7957,0.94787
1683.8313,0.94691
1682.8669,0.94639
1681.9025,0.94535
1680.9381,0.94439
1679.9738,0.94396
1679.0094,0.94326
1678.045,0.94196
1677.0806,0.94048
1676.1162,0.93996
1675.1518,0.94057
1674.1874,0.941
1673.223,0.94057
1672.2586,0.93953
1671.2942,0.93796
1670.3298,0.93614
1669.3654,0.93483
1668.401,0.9344
1667.4366,0.93388
1666.4722,0.93292
1665.5078,0.93197
1664.5434,0.93075
1663.5791,0.9291
1662.6147,0.92736
1661.6503,0.92614
1660.6859,0.92597
1659.7215,0.92649
1658.7571,0.92675
1657.7927,0.92597
1656.8283,0.92423
1655.8639,0.92258
1654.8995,0.92189
1653.9351,0.92137
1652.9707,0.91998
1652.0063,0.91841
1651.0419,0.91763
1650.0775,0.91728
1649.1131,0.91676
1648.1488,0.91633
1647.1844,0.91537
1646.22,0.91407
1645.2556,0.91372
1644.2912,0.91424
1643.3268,0.91389
1642.3624,0.91276
1641.398,0.91207
1640.4336,0.91198
1639.4692,0.91146
1638.5048,0.91033
1637.5404,0.9092
1636.576,0.90868
1635.6116,0.90894
1634.6472,0.9092
1633.6828,0.90877
1632.7185,0.90833
1631.7541,0.90807
1630.7897,0.90772
1629.8253,0.90738
1628.8609,0.90825
1627.8965,0.90998
1626.9321,0.91077
1625.9677,0.90998
1625.0033,0.90911
1624.0389,0.90903
1623.0745,0.90981
1622.1101,0.9112
1621.1457,0.91242
1620.1813,0.91372
1619.2169,0.91528
1618.2526,0.91607
1617.2882,0.91615
1616.3238,0.91641
1615.3594,0.91693
1614.395,0.91772
1613.4306,0.91885
1612.4662,0.9198
1611.5018,0.92024
1610.5374,0.92111
1609.573,0.9225
1608.6086,0.92336
1607.6442,0.92354
1606.6798,0.92397
1605.7154,0.92493
1604.7511,0.92614
1603.7867,0.92745
1602.8223,0.92823
1601.8579,0.92762
1600.8935,0.92675
1599.9291,0.92693
1598.9647,0.9278
1598.0003,0.92858
1597.0359,0.92927
1596.0715,0.93032
1595.1071,0.93127
1594.1427,0.93188
1593.1783,0.93249
1592.2139,0.93275
1591.2495,0.93257
1590.2851,0.93257
1589.3208,0.93284
1588.3564,0.93301
1587.392,0.93344
1586.4276,0.93449
1585.4632,0.9357
1584.4988,0.93648
1583.5344,0.93675
1582.57,0.93701
1581.6056,0.93787
1580.6412,0.93874
1579.6768,0.93892
1578.7124,0.93857
1577.748,0.93822
1576.7836,0.93796
1575.8192,0.93805
1574.8548,0.93909
1573.8905,0.94022
1572.9261,0.94083
1571.9617,0.94083
1570.9973,0.94048
1570.0329,0.94066
1569.0685,0.94161
1568.1041,0.94222
1567.1397,0.94213
1566.1753,0.94178
1565.2109,0.94187
1564.2465,0.94283
1563.2821,0.94352
1562.3177,0.94326
1561.3533,0.943
1560.3889,0.94352
1559.4245,0.94404
1558.4602,0.9443
1557.4958,0.94491
1556.5314,0.94578
1555.567,0.94578
1554.6026,0.94526
1553.6382,0.94543
1552.6738,0.94622
1551.7094,0.94726
1550.745,0.94804
1549.7806,0.94821
1548.8162,0.94821
1547.8518,0.94865
1546.8874,0.94926
1545.923,0.94952
1544.9586,0.949
1543.9942,0.94787
1543.0298,0.94735
1542.0655,0.94761
1541.1011,0.94795
1540.1367,0.94839
1539.1723,0.94908
1538.2079,0.9496
1537.2435,0.94934
1536.2791,0.94891
1535.3147,0.94917
1534.3503,0.95004
1533.3859,0.95099
1532.4215,0.95212
1531.4571,0.95273
1530.4927,0.95221
1529.5283,0.95169
1528.5639,0.95212
1527.5995,0.95291
1526.6352,0.95317
1525.6708,0.95308
1524.7064,0.95265
1523.742,0.9523
1522.7776,0.95291
1521.8132,0.95412
1520.8488,0.95482
1519.8844,0.95447
1518.92,0.95404
1517.9556,0.95412
1516.9912,0.95473
1516.0268,0.95517
1515.0624,0.95508
1514.098,0.95499
1513.1336,0.95525
1512.1692,0.95551
1511.2049,0.95508
1510.2405,0.95438
1509.2761,0.95447
1508.3117,0.95543
1507.3473,0.95586
1506.3829,0.95534
1505.4185,0.95525
1504.4541,0.95673
1503.4897,0.95881
1502.5253,0.96012
1501.5609,0.96047
1500.5965,0.96003
1499.6321,0.95908
1498.6677,0.95821
1497.7034,0.95829
1496.739,0.95916
1495.7746,0.95994
1494.8102,0.96038
1493.8458,0.96038
1492.8814,0.96003
1491.917,0.95994
1490.9526,0.95977
1489.9882,0.95942
1489.0238,0.95951
1488.0594,0.96038
1487.095,0.96116
1486.1306,0.9609
1485.1662,0.96012
1484.2018,0.95968
1483.2374,0.95968
1482.2731,0.96029
1481.3087,0.96107
1480.3443,0.96099
1479.3799,0.95994
1478.4155,0.95899
1477.4511,0.95864
1476.4867,0.95855
1475.5223,0.95803
1474.5579,0.95682
1473.5935,0.95595
1472.6291,0.95621
1471.6647,0.95664
1470.7003,0.9563
1469.7359,0.9549
1468.7715,0.95325
1467.8072,0.95204
1466.8428,0.95143
1465.8784,0.9516
1464.914,0.95282
1463.9496,0.9549
1462.9852,0.95699
1462.0208,0.95812
1461.0564,0.95795
1460.092,0.95777
1459.1276,0.95847
1458.1632,0.9596
1457.1988,0.96003
1456.2344,0.95951
1455.27,0.95864
1454.3056,0.95847
1453.3412,0.95925
1452.3769,0.96038
1451.4125,0.96099
1450.4481,0.96073
1449.4837,0.96055
1448.5193,0.96047
1447.5549,0.96064
1446.5905,0.96125
1445.6261,0.96194
1444.6617,0.96212
1443.6973,0.96238
1442.7329,0.96333
1441.7685,0.96438
1440.8041,0.96455
1439.8397,0.96385
1438.8753,0.96377
1437.9109,0.96412
1436.9465,0.96403
1435.9822,0.96412
1435.0178,0.96472
1434.0534,0.96524
1433.089,0.96533
1432.1246,0.96568
1431.1602,0.96594
1430.1958,0.96551
1429.2314,0.96516
1428.267,0.96603
1427.3026,0.96716
1426.3382,0.96707
1425.3738,0.96637
1424.4094,0.9662
1423.445,0.96646
1422.4806,0.96646
1421.5162,0.96611
1420.5519,0.96577
1419.5875,0.96577
1418.6231,0.96637
1417.6587,0.96637
1416.6943,0.96603
1415.7299,0.96646
1414.7655,0.96724
1413.8011,0.96716
1412.8367,0.96663
1411.8723,0.96672
1410.9079,0.96742
1409.9435,0.96742
1408.9791,0.96681
1408.0147,0.96716
1407.0503,0.96829
1406.0859,0.96872
1405.1216,0.96855
1404.1572,0.96855
1403.1928,0.96889
1402.2284,0.96942
1401.264,0.9702
1400.2996,0.97081
1399.3352,0.97054
1398.3708,0.96968
1397.4064,0.96933
1396.442,0.96942
1395.4776,0.96959
1394.5132,0.96968
1393.5488,0.96942
1392.5844,0.96959
1391.62,0.97037
1390.6556,0.97054
1389.6913,0.96968
1388.7269,0.96872
1387.7625,0.96881
1386.7981,0.96976
1385.8337,0.97037
1384.8693,0.96968
1383.9049,0.96881
1382.9405,0.96863
1381.9761,0.96872
1381.0117,0.96846
1380.0473,0.9682
1379.0829,0.96846
1378.1185,0.96915
1377.1541,0.97028
1376.1898,0.97072
1375.2253,0.97028
1374.261,0.9695
1373.2966,0.96907
1372.3322,0.96881
1371.3678,0.96889
1370.4034,0.9695
1369.439,0.97046
1368.4746,0.97072
1367.5102,0.96976
1366.5458,0.96855
1365.5814,0.96776
1364.617,0.96707
1363.6526,0.96629
1362.6882,0.96507
1361.7238,0.96359
1360.7595,0.96246
1359.7951,0.96255
1358.8307,0.96342
1357.8663,0.96455
1356.9019,0.9662
1355.9375,0.96776
1354.9731,0.96829
1354.0087,0.96837
1353.0443,0.96881
1352.0799,0.96924
1351.1155,0.96855
1350.1511,0.96698
1349.1867,0.96646
1348.2223,0.96707
1347.2579,0.96716
1346.2936,0.96577
1345.3292,0.96299
1344.3648,0.95916
1343.4004,0.95456
1342.436,0.95004
1341.4716,0.94769
1340.5072,0.94874
1339.5428,0.95239
1338.5784,0.95708
1337.614,0.96073
1336.6496,0.96246
1335.6852,0.96385
1334.7208,0.96516
1333.7564,0.96603
1332.792,0.96698
1331.8276,0.96846
1330.8633,0.96959
1329.8989,0.97002
1328.9345,0.96976
1327.9701,0.96846
1327.0057,0.9675
1326.0413,0.9682
1325.0769,0.96959
1324.1125,0.9702
1323.1481,0.9702
1322.1837,0.9702
1321.2193,0.97002
1320.2549,0.96915
1319.2905,0.96759
1318.3261,0.96637
1317.3617,0.96663
1316.3973,0.96742
1315.4329,0.9675
1314.4686,0.96681
1313.5042,0.96559
1312.5398,0.96498
1311.5754,0.96533
1310.611,0.96524
1309.6466,0.96464
1308.6822,0.96455
1307.7178,0.96481
1306.7534,0.96498
1305.789,0.96481
1304.8246,0.96472
1303.8602,0.9649
1302.8958,0.96472
1301.9314,0.96394
1300.967,0.96238
1300.0026,0.96107
1299.0383,0.9609
1298.0739,0.9616
1297.1095,0.96177
1296.1451,0.96064
1295.1807,0.95881
1294.2163,0.95716
1293.2519,0.95656
1292.2875,0.95716
1291.3231,0.95769
1290.3587,0.95699
1289.3943,0.95534
1288.4299,0.9536
1287.4655,0.95221
1286.5011,0.95108
1285.5367,0.94987
1284.5723,0.94882
1283.608,0.94761
1282.6436,0.94587
1281.6792,0.9443
1280.7148,0.943
1279.7504,0.9417
1278.786,0.94161
1277.8216,0.94291
1276.8572,0.94413
1275.8928,0.94491
1274.9284,0.94604
1273.964,0.94735
1272.9996,0.94848
1272.0352,0.94865
1271.0708,0.94856
1270.1064,0.949
1269.142,0.94952
1268.1777,0.94926
1267.2133,0.94865
1266.2489,0.94821
1265.2845,0.94865
1264.3201,0.94926
1263.3557,0.94917
1262.3913,0.94848
1261.4269,0.94795
1260.4625,0.94726
1259.4981,0.9463
1258.5337,0.94543
1257.5693,0.94552
1256.6049,0.9463
1255.6405,0.94648
1254.6762,0.94543
1253.7117,0.94404
1252.7474,0.94317
1251.783,0.94283
1250.8186,0.943
1249.8542,0.94326
1248.8898,0.94309
1247.9254,0.94239
1246.961,0.94144
1245.9966,0.93979
1245.0322,0.93735
1244.0678,0.93509
1243.1034,0.93344
1242.139,0.93153
1241.1746,0.92945
1240.2102,0.92823
1239.2459,0.9284
1238.2815,0.92866
1237.3171,0.92832
1236.3527,0.92736
1235.3883,0.92658
1234.4239,0.92632
1233.4595,0.92588
1232.4951,0.92502
1231.5307,0.92467
1230.5663,0.92519
1229.6019,0.92588
1228.6375,0.92562
1227.6731,0.9238
1226.7087,0.92215
1225.7443,0.92137
1224.7799,0.91972
1223.8156,0.91737
1222.8512,0.9165
1221.8868,0.91667
1220.9224,0.91581
1219.958,0.91415
1218.9936,0.91294
1218.0292,0.91207
1217.0648,0.91059
1216.1004,0.90842
1215.136,0.90625
1214.1716,0.90468
1213.2072,0.90347
1212.2428,0.9026
1211.2784,0.90182
1210.314,0.90043
1209.3497,0.8986
1208.3853,0.89626
1207.4209,0.89374
1206.4565,0.89243
1205.4921,0.89165
1204.5277,0.88939
1203.5633,0.8867
1202.5989,0.88487
1201.6345,0.88296
1200.6701,0.88114
1199.7057,0.87992
1198.7413,0.87801
1197.7769,0.87497
1196.8125,0.87175
1195.8481,0.86923
1194.8837,0.86767
1193.9193,0.86619
1192.955,0.86411
1191.9906,0.86246
1191.0262,0.86072
1190.0618,0.85768
1189.0974,0.85385
1188.133,0.85081
1187.1686,0.84838
1186.2042,0.84482
1185.2398,0.84073
1184.2754,0.83787
1183.311,0.83648
1182.3466,0.83535
1181.3822,0.833
1180.4178,0.82909
1179.4534,0.82483
1178.489,0.82188
1177.5247,0.81997
1176.5603,0.81693
1175.5959,0.81276
1174.6315,0.80919
1173.6671,0.80667
1172.7027,0.80459
1171.7383,0.80242
1170.7739,0.80007
1169.8095,0.79685
1168.8451,0.79303
1167.8807,0.78964
1166.9163,0.78678
1165.9519,0.78339
1164.9875,0.77939
1164.0231,0.77618
1163.0587,0.77435
1162.0944,0.77218
1161.13,0.76783
1160.1656,0.76245
1159.2012,0.75862
1158.2368,0.75593
1157.2724,0.75306
1156.308,0.74967
1155.3436,0.7455
1154.3792,0.74046
1153.4148,0.73499
1152.4504,0.72865
1151.486,0.72091
1150.5216,0.71388
1149.5572,0.7091
1148.5928,0.70571
1147.6284,0.70258
1146.6641,0.69902
1145.6997,0.69511
1144.7353,0.69155
1143.7709,0.68877
1142.8065,0.68642
1141.8421,0.68355
1140.8777,0.68042
1139.9133,0.67851
1138.9489,0.67695
1137.9845,0.67399
1137.0201,0.67087
1136.0557,0.66843
1135.0913,0.66557
1134.1269,0.66305
1133.1626,0.66183
1132.1981,0.65966
1131.2338,0.65505
1130.2694,0.64958
1129.305,0.64419
1128.3406,0.63846
1127.3762,0.63272
1126.4118,0.62725
1125.4474,0.62108
1124.483,0.61282
1123.5186,0.60414
1122.5542,0.59736
1121.5898,0.59232
1120.6254,0.58632
1119.661,0.57798
1118.6966,0.56895
1117.7323,0.5606
1116.7678,0.55209
1115.8035,0.54149
1114.8391,0.52993
1113.8747,0.5209
1112.9103,0.51481
1111.9459,0.50882
1110.9815,0.50065
1110.0171,0.48996
1109.0527,0.47832
1108.0883,0.46824
1107.1239,0.46146
1106.1595,0.45695
1105.1951,0.45008
1104.2307,0.43957
1103.2663,0.42897
1102.302,0.42054
1101.3376,0.41307
1100.3732,0.40473
1099.4088,0.39473
1098.4444,0.38448
1097.48,0.37744
1096.5156,0.37501
1095.5512,0.37458
1094.5868,0.3731
1093.6224,0.36919
1092.658,0.36345
1091.6936,0.35868
1090.7292,0.35668
1089.7648,0.3565
1088.8004,0.35555
1087.836,0.35199
1086.8717,0.34721
1085.9073,0.34347
1084.9429,0.34008
1083.9785,0.3353
1083.0141,0.32957
1082.0497,0.32453
1081.0853,0.31984
1080.1209,0.31445
1079.1565,0.30924
1078.1921,0.30463
1077.2277,0.29942
1076.2633,0.29264
1075.2989,0.28508
1074.3345,0.2783
1073.3701,0.27292
1072.4057,0.26779
1071.4414,0.26101
1070.477,0.25363
1069.5126,0.24772
1068.5482,0.24164
1067.5838,0.23382
1066.6194,0.22443
1065.655,0.21514
1064.6906,0.20758
1063.7262,0.19889
1062.7618,0.18516
1061.7974,0.16778
1060.833,0.15153
1059.8686,0.1398
1058.9042,0.13294
1057.9398,0.12938
1056.9754,0.12747
1056.0111,0.12634
1055.0467,0.12495
1054.0823,0.12173
1053.1179,0.1166
1052.1535,0.11165
1051.1891,0.10705
1050.2247,0.10175
1049.2603,0.096186
1048.2959,0.09132
1047.3315,0.086802
1046.3671,0.081675
1045.4027,0.076809
1044.4383,0.072813
1043.4739,0.069424
1042.5095,0.066122
1041.5451,0.062212
1040.5808,0.05752
1039.6164,0.051872
1038.652,0.046138
1037.6876,0.041446
1036.7232,0.036928
1035.7588,0.032496
1034.7944,0.027891
1033.83,0.023025
1032.8656,0.019637
1031.9012,0.017812
1030.9368,0.016509
1029.9724,0.016335
1029.008,0.016074
1028.0436,0.013468
1027.0792,0.010861
1026.1148,0.0097315
1025.1505,0.0079069
1024.1861,0.0053002
1023.2217,0.00391
1022.2573,0.0036493
1021.2929,0.0028673
1020.3285,0.0017378
1019.3641,0.001564
1018.3997,0.0017378
1017.4353,0.0010427
1016.4709,0.00052133
1015.5065,0.00043444
1014.5421,0
1013.5777,0.0014771
1012.6133,0.0055609
1011.649,0.0088626
1010.6845,0.0098184
1009.7202,0.010253
1008.7558,0.011382
1007.7914,0.013294
1006.827,0.014858
1005.8626,0.016074
1004.8982,0.017638
1003.9338,0.018768
1002.9694,0.019463
1002.005,0.021375
1001.0406,0.025285
1000.0762,0.030411
999.11183,0.034755
998.14743,0.038057
997.18304,0.04162
996.21865,0.045008
995.25425,0.047702
994.28986,0.050656
993.32547,0.053436
992.36107,0.055261
991.39668,0.05865
990.43229,0.064037
989.46789,0.068121
988.5035,0.070293
987.5391,0.073247
986.57471,0.079069
985.61032,0.086975
984.64592,0.094274
983.68153,0.099922
982.71714,0.10505
981.75274,0.10983
980.78835,0.11565
979.82396,0.12373
978.85956,0.13303
977.89517,0.14172
976.93077,0.14849
975.96638,0.15388
975.00199,0.15961
974.03759,0.16665
973.0732,0.17508
972.10881,0.18351
971.14441,0.1902
970.18002,0.19585
969.21563,0.20193
968.25123,0.20601
967.28684,0.20532
966.32244,0.20132
965.35805,0.1975
964.39366,0.19411
963.42926,0.19081
962.46487,0.19098
961.50048,0.19785
960.53608,0.21053
959.57169,0.22522
958.6073,0.23877
957.6429,0.25154
956.67851,0.26484
955.71411,0.27874
954.74972,0.29273
953.78533,0.30498
952.82093,0.31567
951.85654,0.32627
950.89215,0.33574
949.92775,0.34234
948.96336,0.34886
947.99896,0.35737
947.03457,0.36615
946.07018,0.37362
945.10578,0.38196
944.14139,0.39274
943.177,0.40481
942.2126,0.41628
941.24821,0.42628
940.28382,0.43522
939.31942,0.44426
938.35503,0.45417
937.39063,0.46398
936.42624,0.47215
935.46185,0.47884
934.49745,0.48536
933.53306,0.49092
932.56867,0.49605
931.60427,0.50213
930.63988,0.50865
929.67549,0.51464
928.71109,0.52064
927.7467,0.52689
926.7823,0.53306
925.81791,0.5388
924.85352,0.54366
923.88912,0.54853
922.92473,0.55435
921.96034,0.55974
920.99594,0.56312
920.03155,0.56721
919.06716,0.5739
918.10276,0.57972
917.13837,0.58346
916.17397,0.58763
915.20958,0.59162
914.24519,0.5944
913.28079,0.59814
912.3164,0.60318
911.35201,0.6077
910.38761,0.61143
909.42322,0.61543
908.45882,0.61986
907.49443,0.62499
906.53004,0.63038
905.56564,0.63516
904.60125,0.63976
903.63686,0.64393
902.67246,0.64723
901.70807,0.65001
900.74368,0.65305
899.77928,0.65783
898.81489,0.66331
897.85049,0.66774
896.8861,0.6726
895.92171,0.67686
894.95731,0.67825
893.99292,0.68016
893.02853,0.68581
892.06413,0.69259
891.09974,0.69745
890.13535,0.6998
889.17095,0.70006
888.20656,0.70136
887.24216,0.70562
886.27777,0.71144
885.31338,0.7164
884.34898,0.71935
883.38459,0.72152
882.4202,0.72422
881.4558,0.7263
880.49141,0.72717
879.52702,0.72856
878.56262,0.73143
877.59823,0.73412
876.63383,0.73516
875.66944,0.73612
874.70505,0.73864
873.74065,0.74133
872.77626,0.74403
871.81187,0.74733
870.84747,0.74907
869.88308,0.7502
868.91868,0.75341
867.95429,0.75671
866.9899,0.75923
866.0255,0.76106
865.06111,0.76149
864.09672,0.76236
863.13232,0.76453
862.16793,0.76514
861.20354,0.76323
860.23914,0.76184
859.27475,0.76236
858.31035,0.76236
857.34596,0.76166
856.38157,0.76201
855.41717,0.76392
854.45278,0.76549
853.48839,0.76462
852.52399,0.76314
851.5596,0.76514
850.59521,0.76783
849.63081,0.76523
848.66642,0.75932
847.70202,0.75463
846.73763,0.7508
845.77324,0.74585
844.80884,0.74055
843.84445,0.73681
842.88006,0.73212
841.91566,0.72647
840.95127,0.72621
839.98688,0.73273
839.02248,0.7409
838.05809,0.74733
837.09369,0.7508
836.1293,0.75185
835.16491,0.75471
834.20051,0.76097
833.23612,0.76566
832.27173,0.76531
831.30733,0.76358
830.34294,0.76375
829.37855,0.7641
828.41415,0.76514
827.44976,0.76809
826.48536,0.76922
825.52097,0.7674
824.55658,0.76618
823.59218,0.76575
822.62779,0.76575
821.6634,0.76792
820.699,0.77148
819.73461,0.77331
818.77021,0.77392
817.80582,0.77418
816.84143,0.77366
815.87703,0.77244
814.91264,0.77192
813.94825,0.77218
812.98385,0.77166
812.01946,0.76957
811.05507,0.76792
810.09067,0.76844
809.12628,0.77027
808.16188,0.77166
807.19749,0.77244
806.2331,0.774
805.2687,0.77426
804.30431,0.77227
803.33992,0.77079
802.37552,0.77079
801.41113,0.772
800.44674,0.77322
799.48234,0.77105
798.51795,0.76679
797.55355,0.76688
796.58916,0.77087
795.62477,0.77253
794.66037,0.772
793.69598,0.77218
792.73159,0.77192
791.76719,0.77009
790.8028,0.76844
789.83841,0.7687
788.87401,0.77061
787.90962,0.77061
786.94522,0.76705
785.98083,0.76401
785.01644,0.76445
784.05204,0.76601
783.08765,0.7661
782.12326,0.76471
781.15886,0.7634
780.19447,0.76279
779.23007,0.76219
778.26568,0.76262
777.30129,0.76462
776.33689,0.7661
775.3725,0.76636
774.40811,0.76662
773.44371,0.76653
772.47932,0.76557
771.51493,0.76445
770.55053,0.76479
769.58614,0.76549
768.62174,0.76279
767.65735,0.75828
766.69296,0.75628
765.72856,0.75671
764.76417,0.75767
763.79978,0.75741
762.83538,0.75619
761.87099,0.75697
760.9066,0.75845
759.9422,0.75941
758.97781,0.76123
758.01341,0.76201
757.04902,0.76036
756.08463,0.75715
755.12023,0.75358
754.15584,0.75133
753.19145,0.7515
752.22705,0.75445
751.26266,0.75732
750.29827,0.75628
749.33387,0.7528
748.36948,0.7495
747.40508,0.74776
746.44069,0.74854
745.4763,0.7495
744.5119,0.74924
743.54751,0.74967
742.58312,0.75072
741.61872,0.7502
740.65433,0.74898
739.68993,0.7482
738.72554,0.74733
737.76115,0.74568
736.79675,0.74385
735.83236,0.7429
734.86797,0.7422
733.90357,0.74229
732.93918,0.74307
731.97479,0.74298
731.01039,0.74185
730.046,0.74107
729.0816,0.74055
728.11721,0.73968
727.15282,0.73933
726.18842,0.73829
725.22403,0.7356
724.25964,0.73369
723.29524,0.7329
722.33085,0.73151
721.36646,0.73047
720.40206,0.73134
719.43767,0.73351
718.47327,0.73438
717.50888,0.73299
716.54449,0.73099
715.58009,0.72943
714.6157,0.72734
713.65131,0.72465
712.68691,0.72291
711.72252,0.72396
710.75813,0.7276
709.79373,0.73143
708.82934,0.73317
707.86494,0.73134
706.90055,0.72674
705.93616,0.72291
704.97176,0.72239
704.00737,0.72404
703.04298,0.72396
702.07858,0.71892
701.11419,0.71474
700.14979,0.71666
699.1854,0.72048
698.22101,0.7217
697.25661,0.72083
696.29222,0.71892
695.32783,0.71622
694.36343,0.71353
693.39904,0.71231
692.43465,0.71118
691.47025,0.70875
690.50586,0.70614
689.54146,0.70336
688.57707,0.70041
687.61268,0.69771
686.64828,0.69476
685.68389,0.69241
684.7195,0.69224
683.7551,0.69372
682.79071,0.6952
681.82632,0.69589
680.86192,0.69598
679.89753,0.6965
678.93313,0.69563
677.96874,0.6912
677.00435,0.68659
676.03995,0.68581
675.07556,0.68633
674.11117,0.6852
673.14677,0.68347
672.18238,0.68068
671.21799,0.67704
670.25359,0.67651
669.2892,0.67825
668.3248,0.67538
667.36041,0.66687
666.39602,0.66166
665.43162,0.66565
664.46723,0.6733
663.50284,0.67408
662.53844,0.66713
661.57405,0.66183
660.60966,0.65844
659.64526,0.65219
658.68087,0.64767
657.71647,0.64576
656.75208,0.64324
655.78769,0.64523
654.82329,0.65132
653.8589,0.65106
652.89451,0.64654
651.93011,0.64819
650.96572,0.65305
650.00132,0.65071
649.03693,0.64063
648.07254,0.62647
647.10814,0.61196
646.14375,0.6037
645.17936,0.60214
644.21496,0.60214
643.25057,0.60153
642.28618,0.6017
641.32178,0.59997
640.35739,0.59423
639.39299,0.59015
638.4286,0.5878
637.46421,0.58085
636.49981,0.56617
635.53542,0.54835
634.57103,0.54401
633.60663,0.55496
632.64224,0.56008
631.67785,0.55487
630.71345,0.55139
629.74906,0.54601
628.78466,0.53628
627.82027,0.5381
626.85588,0.54714
625.89148,0.54201
624.92709,0.52889
623.9627,0.52681
622.9983,0.53541
622.03391,0.54331
621.06952,0.53549
620.10512,0.50491
619.14073,0.47763
618.17633,0.48805
617.21194,0.5149
616.24755,0.505
615.28315,0.47319
614.31876,0.47867
613.35437,0.50812
612.38997,0.50943
611.42558,0.48484
610.46118,0.46259
609.49679,0.45434
608.5324,0.46694
607.568,0.48866
606.60361,0.48345
605.63922,0.44574
604.67482,0.41211
603.71043,0.4029
602.74604,0.41394
601.78164,0.43175
600.81725,0.43531
599.85285,0.43514
