Twotheta,NormalizedIntensity
degrees,a.u.
4.51275,0.94311
4.53825,0.93388
4.56375,0.92991
4.58925,0.92348
4.61475,0.91834
4.64025,0.90418
4.66575,0.89893
4.69125,0.88911
4.71675,0.87922
4.74225,0.86651
4.76775,0.8528
4.79325,0.85034
4.81875,0.84164
4.84425,0.83232
4.86975,0.82308
4.89525,0.80986
4.92075,0.80403
4.94625,0.78908
4.97175,0.78225
4.99725,0.77557
5.02275,0.76854
5.04825,0.7598
5.07375,0.75098
5.09925,0.74138
5.12475,0.73261
5.15025,0.72707
5.17575,0.71747
5.20125,0.70955
5.22675,0.70161
5.25225,0.69444
5.27775,0.69015
5.30325,0.68039
5.32875,0.67472
5.35425,0.6681
5.37975,0.66316
5.40525,0.65719
5.43075,0.65032
5.45625,0.64726
5.48175,0.63961
5.50725,0.63861
5.53275,0.63082
5.55825,0.62811
5.58375,0.62388
5.60925,0.61689
5.63475,0.61671
5.66025,0.61191
5.68575,0.60868
5.71125,0.6051
5.73675,0.60296
5.76225,0.60133
5.78775,0.59594
5.81325,0.59586
5.83875,0.59192
5.86425,0.59052
5.88975,0.59088
5.91525,0.58869
5.94075,0.58777
5.96625,0.58687
5.99175,0.58577
6.01725,0.58384
6.04275,0.58587
6.06825,0.58447
6.09375,0.58493
6.11925,0.58531
6.14475,0.58515
6.17025,0.58822
6.19575,0.58891
6.22125,0.58895
6.24675,0.58873
6.27225,0.59112
6.29775,0.5909
6.32325,0.59184
6.34875,0.59757
6.37425,0.59769
6.39975,0.60235
6.42525,0.60342
6.45075,0.6043
6.47625,0.60916
6.50175,0.61201
6.52725,0.61804
6.55275,0.61813
6.57825,0.62733
6.60375,0.62464
6.62925,0.63318
6.65475,0.63313
6.68025,0.63498
6.70575,0.64334
6.73125,0.64548
6.75675,0.65434
6.78225,0.65148
6.80775,0.65951
6.83325,0.66249
6.85875,0.66858
6.88425,0.67032
6.90975,0.67274
6.93525,0.68451
6.96075,0.68201
6.98625,0.69049
7.01175,0.69328
7.03725,0.69864
7.06275,0.69703
7.08825,0.69746
7.11375,0.70625
7.13925,0.70235
7.16475,0.71316
7.19025,0.70972
7.21575,0.713
7.24125,0.71507
7.26675,0.70994
7.29225,0.71662
7.31775,0.71068
7.34325,0.71869
7.36875,0.70722
7.39425,0.71927
7.41975,0.71109
7.44525,0.71156
7.47075,0.71216
7.49625,0.7068
7.52175,0.71097
7.54725,0.70175
7.57275,0.71018
7.59825,0.69913
7.62375,0.70159
7.64925,0.69263
7.67475,0.69225
7.70025,0.69047
7.72575,0.68378
7.75125,0.67992
7.77675,0.66843
7.80225,0.66912
7.82775,0.65837
7.85325,0.65584
7.87875,0.64661
7.90425,0.63904
7.92975,0.63503
7.95525,0.62567
7.98075,0.62063
8.00625,0.60873
8.03175,0.60634
8.05725,0.59413
8.08275,0.58714
8.10825,0.57963
8.13375,0.57188
8.15925,0.56475
8.18475,0.55708
8.21025,0.5535
8.23575,0.54484
8.26125,0.54177
8.28675,0.53155
8.31225,0.52728
8.33775,0.5205
8.36325,0.51341
8.38875,0.51207
8.41425,0.50553
8.43975,0.50303
8.46525,0.49484
8.49075,0.49344
8.51625,0.48741
8.54175,0.48243
8.56725,0.47992
8.59275,0.47653
8.61825,0.4735
8.64375,0.47028
8.66925,0.46729
8.69475,0.46416
8.72025,0.46317
8.74575,0.46105
8.77125,0.45918
8.79675,0.45751
8.82225,0.45665
8.84775,0.45616
8.87325,0.4509
8.89875,0.44844
8.92425,0.44654
8.94975,0.44667
8.97525,0.44863
9.00075,0.44752
9.02625,0.44496
9.05175,0.44448
9.07725,0.44271
9.10275,0.44059
9.12825,0.44085
9.15375,0.44125
9.17925,0.43997
9.20475,0.43911
9.23025,0.4403
9.25575,0.43889
9.28125,0.43823
9.30675,0.4401
9.33225,0.43792
9.35775,0.43889
9.38325,0.43679
9.40875,0.43654
9.43425,0.43589
9.45975,0.43655
9.48525,0.43721
9.51075,0.43831
9.53625,0.4379
9.56175,0.43703
9.58725,0.43794
9.61275,0.43623
9.63825,0.43948
9.66375,0.43895
9.68925,0.43833
9.71475,0.43761
9.74025,0.43707
9.76575,0.43778
9.79125,0.43788
9.81675,0.43847
9.84225,0.43684
9.86775,0.43867
9.89325,0.43851
9.91875,0.43786
9.94425,0.4392
9.96975,0.43898
9.99525,0.43594
10.0207,0.43481
10.0463,0.4343
10.0717,0.43369
10.0973,0.43111
10.1227,0.43139
10.1483,0.43016
10.1738,0.42897
10.1992,0.42768
10.2248,0.42746
10.2502,0.42756
10.2758,0.42635
10.3012,0.42381
10.3268,0.42208
10.3522,0.42118
10.3778,0.41801
10.4032,0.41552
10.4288,0.41087
10.4543,0.4102
10.4797,0.40648
10.5053,0.40589
10.5307,0.40385
10.5563,0.39984
10.5817,0.39806
10.6073,0.39434
10.6327,0.3922
10.6583,0.38928
10.6837,0.39036
10.7093,0.38419
10.7348,0.38166
10.7602,0.37966
10.7858,0.37884
10.8112,0.37711
10.8368,0.37357
10.8622,0.37154
10.8878,0.36942
10.9132,0.36772
10.9388,0.36723
10.9642,0.36656
10.9898,0.3648
11.0152,0.36151
11.0407,0.3584
11.0663,0.35822
11.0917,0.35579
11.1173,0.3533
11.1427,0.35163
11.1683,0.35114
11.1937,0.34945
11.2193,0.34815
11.2447,0.34693
11.2703,0.34513
11.2957,0.34252
11.3212,0.34294
11.3468,0.34117
11.3722,0.33942
11.3978,0.33909
11.4232,0.33832
11.4488,0.33729
11.4742,0.3363
11.4998,0.3368
11.5252,0.33453
11.5508,0.33466
11.5762,0.33321
11.6017,0.33134
11.6273,0.33105
11.6527,0.3309
11.6783,0.33027
11.7037,0.3293
11.7293,0.32928
11.7547,0.32937
11.7803,0.3299
11.8057,0.32753
11.8313,0.32698
11.8567,0.32664
11.8823,0.32617
11.9078,0.32424
11.9332,0.32485
11.9588,0.32452
11.9842,0.32257
12.0098,0.32203
12.0352,0.32261
12.0608,0.32177
12.0862,0.32249
12.1118,0.32277
12.1372,0.3223
12.1628,0.32161
12.1883,0.32079
12.2137,0.31772
12.2393,0.31992
12.2647,0.32052
12.2903,0.31951
12.3157,0.31991
12.3413,0.32225
12.3667,0.32121
12.3923,0.31999
12.4177,0.32013
12.4433,0.32047
12.4688,0.32037
12.4942,0.32037
12.5198,0.32142
12.5452,0.32126
12.5708,0.31997
12.5962,0.31912
12.6218,0.31944
12.6472,0.3187
12.6728,0.31964
12.6982,0.32162
12.7238,0.3233
12.7492,0.32296
12.7747,0.32389
12.8003,0.32327
12.8257,0.32404
12.8513,0.32272
12.8767,0.32392
12.9023,0.32443
12.9277,0.32569
12.9533,0.32632
12.9787,0.32929
13.0043,0.3281
13.0297,0.32813
13.0552,0.32929
13.0808,0.33043
13.1062,0.33186
13.1318,0.33164
13.1572,0.33352
13.1828,0.33624
13.2082,0.33694
13.2338,0.33674
13.2592,0.33627
13.2848,0.33581
13.3102,0.33605
13.3358,0.34001
13.3613,0.34245
13.3867,0.34344
13.4123,0.3445
13.4377,0.34677
13.4633,0.34851
13.4887,0.34956
13.5143,0.35251
13.5397,0.35405
13.5653,0.35856
13.5907,0.36208
13.6163,0.36408
13.6418,0.36889
13.6672,0.37303
13.6928,0.37869
13.7182,0.38517
13.7438,0.39499
13.7692,0.40669
13.7948,0.41787
13.8202,0.42716
13.8458,0.44
13.8712,0.44571
13.8968,0.44677
13.9223,0.44084
13.9477,0.43613
13.9733,0.4291
13.9987,0.42764
14.0243,0.42444
14.0497,0.42715
14.0753,0.43016
14.1007,0.43631
14.1263,0.44023
14.1517,0.44715
14.1773,0.45348
14.2027,0.4593
14.2282,0.4649
14.2538,0.47001
14.2792,0.47057
14.3048,0.47552
14.3302,0.47548
14.3558,0.47887
14.3812,0.48044
14.4068,0.48278
14.4322,0.48359
14.4578,0.48844
14.4832,0.4917
14.5087,0.49611
14.5343,0.49905
14.5597,0.50556
14.5853,0.51054
14.6107,0.51768
14.6363,0.52627
14.6617,0.5337
14.6873,0.54272
14.7127,0.5544
14.7383,0.56197
14.7637,0.57622
14.7892,0.58679
14.8148,0.60109
14.8402,0.60999
14.8658,0.63013
14.8912,0.64058
14.9168,0.66014
14.9422,0.66878
14.9678,0.69078
14.9932,0.70336
15.0188,0.72512
15.0442,0.74222
15.0698,0.76253
15.0953,0.77909
15.1207,0.79966
15.1463,0.82071
15.1717,0.83718
15.1973,0.85543
15.2227,0.87579
15.2483,0.89333
15.2737,0.913
15.2993,0.92551
15.3247,0.94011
15.3503,0.95743
15.3758,0.96338
15.4012,0.97743
15.4268,0.98272
15.4522,0.99439
15.4778,0.99508
15.5032,0.99951
15.5288,0.99532
15.5542,1
15.5798,0.98321
15.6052,0.98786
15.6308,0.96817
15.6562,0.96875
15.6817,0.94968
15.7073,0.94142
15.7327,0.92334
15.7583,0.90837
15.7837,0.89232
15.8093,0.87637
15.8347,0.86035
15.8603,0.84406
15.8857,0.82974
15.9113,0.81105
15.9367,0.79622
15.9622,0.77954
15.9878,0.77117
16.0132,0.75316
16.0388,0.74671
16.0643,0.73277
16.0897,0.72322
16.1152,0.71355
16.1408,0.70664
16.1663,0.69886
16.1917,0.69214
16.2172,0.68742
16.2428,0.68153
16.2682,0.6758
16.2937,0.6712
16.3193,0.66937
16.3448,0.66266
16.3702,0.66175
16.3957,0.65786
16.4213,0.65897
16.4468,0.6555
16.4722,0.65527
16.4977,0.65252
16.5233,0.65244
16.5487,0.65085
16.5742,0.65027
16.5998,0.64888
16.6253,0.64708
16.6507,0.64696
16.6762,0.64528
16.7018,0.64664
16.7273,0.64238
16.7527,0.64263
16.7782,0.63867
16.8038,0.63895
16.8292,0.63458
16.8547,0.63515
16.8803,0.63153
16.9058,0.62846
16.9312,0.62673
16.9567,0.62038
16.9823,0.6184
17.0078,0.61465
17.0332,0.61381
17.0587,0.60889
17.0843,0.60705
17.1097,0.60247
17.1352,0.60226
17.1608,0.59615
17.1863,0.59214
17.2117,0.59037
17.2372,0.58697
17.2628,0.58562
17.2883,0.58255
17.3137,0.58066
17.3392,0.57834
17.3648,0.57736
17.3903,0.57381
17.4157,0.57152
17.4413,0.57105
17.4668,0.56775
17.4922,0.56747
17.5177,0.56639
17.5433,0.56491
17.5688,0.56401
17.5942,0.56416
17.6197,0.5638
17.6453,0.56262
17.6708,0.56259
17.6962,0.56304
17.7218,0.56285
17.7473,0.56234
17.7727,0.56147
17.7982,0.56058
17.8238,0.56252
17.8493,0.56297
17.8747,0.55953
17.9002,0.5602
17.9258,0.55993
17.9513,0.56044
17.9767,0.56004
18.0023,0.56022
18.0278,0.56073
18.0532,0.5605
18.0787,0.56151
18.1043,0.55952
18.1298,0.56083
18.1552,0.56028
18.1807,0.56036
18.2063,0.56123
18.2318,0.56047
18.2572,0.55881
18.2828,0.5586
18.3083,0.5568
18.3337,0.55709
18.3592,0.55699
18.3848,0.55581
18.4103,0.55727
18.4357,0.55698
18.4612,0.55419
18.4868,0.55286
18.5123,0.55292
18.5377,0.55434
18.5633,0.55275
18.5888,0.55207
18.6142,0.55097
18.6397,0.54882
18.6653,0.54781
18.6908,0.54604
18.7162,0.54517
18.7417,0.5435
18.7673,0.54206
18.7928,0.54058
18.8182,0.53733
18.8438,0.53671
18.8693,0.53643
18.8947,0.53226
18.9202,0.53054
18.9458,0.52767
18.9713,0.52502
18.9967,0.52415
19.0222,0.52073
19.0478,0.51868
19.0733,0.51556
19.0987,0.51338
19.1242,0.51158
19.1498,0.50836
19.1752,0.50642
19.2007,0.50455
19.2263,0.50164
19.2518,0.5001
19.2772,0.49842
19.3027,0.49468
19.3283,0.49223
19.3538,0.49272
19.3792,0.49014
19.4047,0.48843
19.4303,0.48765
19.4557,0.48539
19.4812,0.4841
19.5068,0.48326
19.5323,0.48248
19.5577,0.48243
19.5832,0.47969
19.6088,0.4803
19.6343,0.47921
19.6597,0.47748
19.6852,0.48053
19.7108,0.47882
19.7362,0.47992
19.7617,0.47769
19.7873,0.47831
19.8128,0.47856
19.8382,0.47772
19.8637,0.47966
19.8893,0.4799
19.9148,0.48023
19.9402,0.48176
19.9657,0.48299
19.9913,0.48517
20.0167,0.48271
20.0422,0.48419
20.0678,0.4875
20.0933,0.4877
20.1187,0.48957
20.1442,0.4876
20.1698,0.4901
20.1953,0.49139
20.2207,0.49094
20.2462,0.49156
20.2718,0.49457
20.2972,0.4929
20.3227,0.49514
20.3483,0.49576
20.3738,0.49642
20.3992,0.49676
20.4247,0.49871
20.4503,0.50044
20.4758,0.49818
20.5012,0.50105
20.5267,0.49923
20.5523,0.50033
20.5778,0.50232
20.6032,0.5018
20.6288,0.50306
20.6543,0.5043
20.6797,0.50585
20.7052,0.5074
20.7308,0.5091
20.7563,0.51039
20.7817,0.51512
20.8072,0.51722
20.8328,0.52538
20.8583,0.5334
20.8837,0.54026
20.9093,0.55455
20.9348,0.5653
20.9602,0.58491
20.9857,0.60583
21.0113,0.62516
21.0368,0.64855
21.0622,0.67285
21.0877,0.69626
21.1133,0.71724
21.1388,0.73025
21.1642,0.74141
21.1898,0.74638
21.2153,0.73826
21.2407,0.73218
21.2662,0.71666
21.2918,0.69461
21.3173,0.67772
21.3427,0.64766
21.3682,0.63149
21.3938,0.60819
21.4193,0.58271
21.4447,0.56768
21.4703,0.54874
21.4958,0.53088
21.5212,0.51868
21.5467,0.50394
21.5723,0.49092
21.5978,0.48228
21.6232,0.47357
21.6487,0.46757
21.6743,0.4613
21.6998,0.45443
21.7252,0.45201
21.7508,0.44636
21.7763,0.44098
21.8017,0.43947
21.8272,0.43423
21.8528,0.43205
21.8783,0.43187
21.9037,0.42764
21.9292,0.42672
21.9548,0.42446
21.9803,0.41938
22.0057,0.42088
22.0312,0.41624
22.0568,0.4137
22.0822,0.41282
22.1077,0.41229
22.1333,0.41077
22.1588,0.4074
22.1842,0.40777
22.2097,0.40488
22.2353,0.40274
22.2608,0.40132
22.2862,0.39863
22.3117,0.39925
22.3373,0.39541
22.3627,0.39678
22.3882,0.39434
22.4138,0.38963
22.4393,0.39036
22.4647,0.38967
22.4902,0.38347
22.5158,0.38348
22.5413,0.38247
22.5667,0.37921
22.5922,0.38057
22.6178,0.37963
22.6432,0.37752
22.6687,0.37688
22.6943,0.37448
22.7198,0.37047
22.7452,0.37106
22.7707,0.36978
22.7963,0.36798
22.8218,0.36831
22.8472,0.36609
22.8727,0.36277
22.8983,0.36241
22.9237,0.36098
22.9492,0.35935
22.9748,0.35774
23.0003,0.35707
23.0257,0.3551
23.0512,0.3548
23.0768,0.35552
23.1023,0.35236
23.1277,0.3523
23.1532,0.35133
23.1788,0.34788
23.2042,0.3495
23.2297,0.34945
23.2553,0.3469
23.2808,0.34522
23.3062,0.34525
23.3317,0.34072
23.3573,0.33891
23.3828,0.33879
23.4082,0.33538
23.4337,0.33585
23.4593,0.33431
23.4847,0.33256
23.5102,0.33335
23.5358,0.333
23.5613,0.32731
23.5867,0.32238
23.6122,0.32338
23.6378,0.31871
23.6633,0.31608
23.6887,0.31427
23.7142,0.3115
23.7398,0.30818
23.7653,0.30798
23.7907,0.30603
23.8163,0.30188
23.8418,0.30211
23.8672,0.29786
23.8927,0.29472
23.9183,0.29433
23.9438,0.29139
23.9692,0.2884
23.9947,0.28595
24.0203,0.28466
24.0458,0.28284
24.0712,0.27836
24.0968,0.27826
24.1223,0.27756
24.1477,0.27229
24.1732,0.27123
24.1988,0.27123
24.2243,0.2687
24.2497,0.26549
24.2752,0.26569
24.3008,0.26472
24.3263,0.26215
24.3517,0.26059
24.3773,0.25956
24.4028,0.2534
24.4282,0.25141
24.4537,0.25277
24.4793,0.25097
24.5048,0.24665
24.5302,0.24699
24.5557,0.24605
24.5813,0.24088
24.6068,0.24269
24.6322,0.24049
24.6578,0.24112
24.6833,0.2374
24.7087,0.23747
24.7342,0.23547
24.7598,0.23023
24.7853,0.23023
24.8107,0.2297
24.8362,0.22808
24.8618,0.22621
24.8873,0.22583
24.9127,0.22509
24.9383,0.22215
24.9638,0.22201
24.9892,0.22154
25.0147,0.22109
25.0403,0.21711
25.0658,0.21887
25.0912,0.21987
25.1167,0.21366
25.1423,0.21292
25.1678,0.21207
25.1932,0.21404
25.2188,0.21077
25.2443,0.21108
25.2697,0.21088
25.2952,0.20861
25.3208,0.20362
25.3463,0.20696
25.3717,0.20696
25.3972,0.20385
25.4228,0.20259
25.4483,0.20504
25.4737,0.20495
25.4992,0.20003
25.5248,0.20063
25.5502,0.20141
25.5757,0.20306
25.6013,0.1991
25.6268,0.19953
25.6522,0.1978
25.6777,0.19695
25.7033,0.19341
25.7288,0.1926
25.7542,0.19469
25.7797,0.19162
25.8053,0.18992
25.8307,0.18972
25.8562,0.18992
25.8818,0.18695
25.9073,0.18487
25.9327,0.18472
25.9582,0.18437
25.9838,0.18257
26.0093,0.1797
26.0347,0.17963
26.0602,0.1756
26.0858,0.17436
26.1112,0.16965
26.1367,0.17055
26.1623,0.16904
26.1878,0.16784
26.2132,0.16174
26.2387,0.16032
26.2643,0.15802
26.2898,0.15896
26.3152,0.15321
26.3407,0.15509
26.3663,0.1529
26.3917,0.15194
26.4172,0.14286
26.4428,0.14377
26.4683,0.1439
26.4937,0.14327
26.5192,0.13811
26.5448,0.13679
26.5703,0.13842
26.5957,0.13784
26.6212,0.13394
26.6468,0.13001
26.6722,0.13005
26.6977,0.1297
26.7233,0.12775
26.7488,0.12263
26.7742,0.12382
26.7997,0.12595
26.8253,0.12458
26.8508,0.11999
26.8762,0.11723
26.9017,0.11895
26.9273,0.11788
26.9528,0.11897
26.9782,0.11125
27.0038,0.11357
27.0293,0.11219
27.0547,0.11162
27.0802,0.11082
27.1058,0.10621
27.1313,0.11106
27.1567,0.10888
27.1822,0.10986
27.2078,0.10617
27.2333,0.10567
27.2587,0.1071
27.2843,0.10374
27.3098,0.10404
27.3352,0.10101
27.3607,0.10431
27.3863,0.10301
27.4118,0.099723
27.4372,0.099918
27.4627,0.096577
27.4883,0.10067
27.5138,0.10047
27.5392,0.10188
27.5648,0.10128
27.5903,0.096366
27.6157,0.10215
27.6412,0.10308
27.6668,0.10553
27.6923,0.10541
27.7177,0.10528
27.7432,0.11146
27.7688,0.11688
27.7943,0.12051
27.8197,0.12367
27.8453,0.12302
27.8708,0.12955
27.8962,0.13216
27.9217,0.13356
27.9473,0.13376
27.9728,0.12993
27.9982,0.12623
28.0237,0.12427
28.0493,0.1178
28.0748,0.11307
28.1002,0.10883
28.1258,0.10053
28.1513,0.096807
28.1767,0.096899
28.2022,0.09303
28.2278,0.088307
28.2533,0.079972
28.2787,0.080856
28.3042,0.081363
28.3298,0.079272
28.3553,0.077446
28.3807,0.078448
28.4062,0.071004
28.4318,0.067487
28.4572,0.069255
28.4827,0.068828
28.5083,0.066447
28.5338,0.064646
28.5592,0.056643
28.5847,0.057751
28.6103,0.058354
28.6358,0.053982
28.6612,0.054854
28.6867,0.051176
28.7123,0.047441
28.7377,0.050589
28.7632,0.050895
28.7888,0.048303
28.8143,0.048057
28.8397,0.047667
28.8652,0.042661
28.8908,0.040099
28.9163,0.039826
28.9417,0.039708
28.9672,0.038696
28.9928,0.038535
29.0182,0.033112
29.0437,0.026068
29.0693,0.030467
29.0948,0.026441
29.1202,0.026367
29.1457,0.026532
29.1713,0.028649
29.1968,0.020633
29.2222,0.016024
29.2477,0.018185
29.2733,0.017474
29.2987,0.017375
29.3242,0.015069
29.3498,0.014328
29.3753,0.011473
29.4007,0.0058456
29.4262,0.010918
29.4518,0.0076548
29.4773,0.01102
29.5027,0.0095296
29.5282,0.0086624
29.5538,0.010671
29.5792,0.0056676
29.6047,0.00042962
29.6303,0.0077935
29.6558,0.005986
29.6812,0.0031182
29.7067,0.0060163
29.7323,0.0067311
29.7578,0.0069673
29.7832,0.0037271
29.8087,0
29.8343,0.0063416
29.8597,0.004181
29.8852,0.0028316
29.9108,0.004108
29.9363,0.0068472
29.9617,0.010384
29.9872,0.0041139
